RRKM rate, sf=0.970, S*=-14.91, E0=1.15 and Delta=0.90
   En (eV)    k (s-1)
         0          0
  0.012398          0
  0.024796          0
  0.037194          0
  0.049593          0
  0.061991          0
  0.074389          0
  0.086787          0
  0.099185          0
   0.11158          0
   0.12398          0
   0.13638          0
   0.14878          0
   0.16118          0
   0.17357          0
   0.18597          0
   0.19837          0
   0.21077          0
   0.22317          0
   0.23556          0
   0.24796          0
   0.26036          0
   0.27276          0
   0.28516          0
   0.29756          0
   0.30995          0
   0.32235          0
   0.33475          0
   0.34715          0
   0.35955          0
   0.37194          0
   0.38434          0
   0.39674          0
   0.40914          0
   0.42154          0
   0.43393          0
   0.44633          0
   0.45873          0
   0.47113          0
   0.48353          0
   0.49593          0
   0.50832          0
   0.52072          0
   0.53312          0
   0.54552          0
   0.55792          0
   0.57031          0
   0.58271          0
   0.59511          0
   0.60751          0
   0.61991          0
    0.6323          0
    0.6447          0
    0.6571          0
    0.6695          0
    0.6819          0
    0.6943          0
   0.70669          0
   0.71909          0
   0.73149          0
   0.74389          0
   0.75629          0
   0.76868          0
   0.78108          0
   0.79348          0
   0.80588          0
   0.81828          0
   0.83067          0
   0.84307          0
   0.85547          0
   0.86787          0
   0.88027          0
   0.89267          0
   0.90506          0
   0.91746          0
   0.92986          0
   0.94226          0
   0.95466          0
   0.96705          0
   0.97945          0
   0.99185          0
    1.0042          0
    1.0166          0
     1.029          0
    1.0414          0
    1.0538          0
    1.0662          0
    1.0786          0
     1.091          0
    1.1034          0
    1.1158          0
    1.1282          0
    1.1406          0
     1.153   0.022429
    1.1654   0.054282
    1.1778    0.13152
    1.1902    0.23629
    1.2026    0.41117
     1.215    0.66629
    1.2274     1.0306
    1.2398     1.5664
    1.2522     2.2808
    1.2646     3.2962
     1.277     4.6188
    1.2894     6.4039
    1.3018     8.7039
    1.3142     11.687
    1.3266     15.495
     1.339       20.3
    1.3514     26.352
    1.3638     33.847
    1.3762      43.14
    1.3886     54.499
     1.401      68.37
    1.4134     85.144
    1.4258     105.36
    1.4382     129.57
    1.4506     158.42
     1.463     192.65
    1.4754     233.06
    1.4878      280.6
    1.5002     336.26
    1.5126     401.21
     1.525      476.7
    1.5374     564.15
    1.5498     665.11
    1.5622      781.3
    1.5746     914.62
     1.587     1067.1
    1.5994     1241.1
    1.6118       1439
    1.6242     1663.7
    1.6366     1917.9
     1.649       2205
    1.6613     2528.4
    1.6737       2892
    1.6861     3299.8
    1.6985     3756.3
    1.7109     4266.2
    1.7233     4834.7
    1.7357     5467.4
    1.7481     6170.1
    1.7605     6949.3
    1.7729     7811.9
    1.7853       8765
    1.7977     9816.6
    1.8101      10975
    1.8225      12249
    1.8349      13648
    1.8473      15183
    1.8597      16864
    1.8721      18702
    1.8845      20709
    1.8969      22900
    1.9093      25285
    1.9217      27881
    1.9341      30703
    1.9465      33765
    1.9589      37087
    1.9713      40684
    1.9837      44576
    1.9961      48782
    2.0085      53324
    2.0209      58223
    2.0333      63502
    2.0457      69184
    2.0581      75296
    2.0705      81863
    2.0829      88914
    2.0953      96475
    2.1077 1.0458e+05
    2.1201 1.1326e+05
    2.1325 1.2254e+05
    2.1449 1.3247e+05
    2.1573 1.4307e+05
    2.1697 1.5439e+05
    2.1821 1.6646e+05
    2.1945 1.7932e+05
    2.2069 1.9302e+05
    2.2193  2.076e+05
    2.2317 2.2311e+05
    2.2441 2.3959e+05
    2.2565 2.5709e+05
    2.2689 2.7567e+05
    2.2813 2.9536e+05
    2.2937 3.1625e+05
    2.3061 3.3837e+05
    2.3185 3.6179e+05
    2.3308 3.8656e+05
    2.3432 4.1276e+05
    2.3556 4.4045e+05
     2.368 4.6969e+05
    2.3804 5.0056e+05
    2.3928 5.3313e+05
    2.4052 5.6746e+05
    2.4176 6.0365e+05
      2.43 6.4177e+05
    2.4424 6.8189e+05
    2.4548 7.2412e+05
    2.4672 7.6853e+05
    2.4796 8.1521e+05
     2.492 8.6425e+05
    2.5044 9.1576e+05
    2.5168 9.6983e+05
    2.5292 1.0266e+06
    2.5416 1.0861e+06
     2.554 1.1484e+06
    2.5664 1.2138e+06
    2.5788 1.2822e+06
    2.5912 1.3539e+06
    2.6036 1.4289e+06
     2.616 1.5073e+06
    2.6284 1.5893e+06
    2.6408  1.675e+06
    2.6532 1.7646e+06
    2.6656 1.8582e+06
     2.678 1.9558e+06
    2.6904 2.0577e+06
    2.7028  2.164e+06
    2.7152 2.2749e+06
    2.7276 2.3905e+06
      2.74 2.5109e+06
    2.7524 2.6364e+06
    2.7648 2.7671e+06
    2.7772 2.9031e+06
    2.7896 3.0446e+06
     2.802 3.1919e+06
    2.8144  3.345e+06
    2.8268 3.5042e+06
    2.8392 3.6697e+06
    2.8516 3.8416e+06
     2.864 4.0202e+06
    2.8764 4.2056e+06
    2.8888  4.398e+06
    2.9012 4.5977e+06
    2.9136 4.8049e+06
     2.926 5.0198e+06
    2.9384 5.2426e+06
    2.9508 5.4735e+06
    2.9632 5.7128e+06
    2.9756 5.9607e+06
     2.988 6.2174e+06
    3.0003 6.4832e+06
    3.0127 6.7584e+06
    3.0251 7.0431e+06
    3.0375 7.3376e+06
    3.0499 7.6423e+06
    3.0623 7.9574e+06
    3.0747  8.283e+06
    3.0871 8.6197e+06
    3.0995 8.9675e+06
    3.1119 9.3269e+06
    3.1243  9.698e+06
    3.1367 1.0081e+07
    3.1491 1.0477e+07
    3.1615 1.0885e+07
    3.1739 1.1306e+07
    3.1863 1.1741e+07
    3.1987 1.2189e+07
    3.2111 1.2651e+07
    3.2235 1.3127e+07
    3.2359 1.3619e+07
    3.2483 1.4125e+07
    3.2607 1.4646e+07
    3.2731 1.5183e+07
    3.2855 1.5736e+07
    3.2979 1.6306e+07
    3.3103 1.6892e+07
    3.3227 1.7495e+07
    3.3351 1.8116e+07
    3.3475 1.8755e+07
    3.3599 1.9412e+07
    3.3723 2.0088e+07
    3.3847 2.0782e+07
    3.3971 2.1497e+07
    3.4095 2.2231e+07
    3.4219 2.2986e+07
    3.4343 2.3761e+07
    3.4467 2.4558e+07
    3.4591 2.5376e+07
    3.4715 2.6216e+07
    3.4839 2.7079e+07
    3.4963 2.7964e+07
    3.5087 2.8873e+07
    3.5211 2.9806e+07
    3.5335 3.0764e+07
    3.5459 3.1746e+07
    3.5583 3.2753e+07
    3.5707 3.3786e+07
    3.5831 3.4846e+07
    3.5955 3.5932e+07
    3.6079 3.7045e+07
    3.6203 3.8187e+07
    3.6327 3.9356e+07
    3.6451 4.0555e+07
    3.6574 4.1783e+07
    3.6698  4.304e+07
    3.6822 4.4328e+07
    3.6946 4.5647e+07
     3.707 4.6998e+07
    3.7194 4.8381e+07
    3.7318 4.9796e+07
    3.7442 5.1244e+07
    3.7566 5.2727e+07
     3.769 5.4244e+07
    3.7814 5.5795e+07
    3.7938 5.7382e+07
    3.8062 5.9005e+07
    3.8186 6.0666e+07
     3.831 6.2363e+07
    3.8434 6.4098e+07
    3.8558 6.5872e+07
    3.8682 6.7685e+07
    3.8806 6.9538e+07
     3.893 7.1431e+07
    3.9054 7.3366e+07
    3.9178 7.5342e+07
    3.9302 7.7361e+07
    3.9426 7.9423e+07
     3.955 8.1529e+07
    3.9674 8.3679e+07
    3.9798 8.5874e+07
    3.9922 8.8115e+07
    4.0046 9.0403e+07
     4.017 9.2737e+07
    4.0294  9.512e+07
    4.0418 9.7552e+07
    4.0542 1.0003e+08
    4.0666 1.0256e+08
     4.079 1.0514e+08
    4.0914 1.0778e+08
    4.1038 1.1046e+08
    4.1162  1.132e+08
    4.1286 1.1599e+08
     4.141 1.1884e+08
    4.1534 1.2174e+08
    4.1658  1.247e+08
    4.1782 1.2771e+08
    4.1906 1.3079e+08
     4.203 1.3392e+08
    4.2154 1.3711e+08
    4.2278 1.4036e+08
    4.2402 1.4367e+08
    4.2526 1.4704e+08
     4.265 1.5047e+08
    4.2774 1.5397e+08
    4.2898 1.5753e+08
    4.3022 1.6116e+08
    4.3146 1.6485e+08
    4.3269 1.6861e+08
    4.3393 1.7244e+08
    4.3517 1.7633e+08
    4.3641  1.803e+08
    4.3765 1.8433e+08
    4.3889 1.8844e+08
    4.4013 1.9261e+08
    4.4137 1.9686e+08
    4.4261 2.0119e+08
    4.4385 2.0558e+08
    4.4509 2.1005e+08
    4.4633  2.146e+08
    4.4757 2.1923e+08
    4.4881 2.2393e+08
    4.5005 2.2872e+08
    4.5129 2.3358e+08
    4.5253 2.3852e+08
    4.5377 2.4355e+08
    4.5501 2.4866e+08
    4.5625 2.5385e+08
    4.5749 2.5912e+08
    4.5873 2.6448e+08
    4.5997 2.6993e+08
    4.6121 2.7547e+08
    4.6245 2.8109e+08
    4.6369 2.8681e+08
    4.6493 2.9261e+08
    4.6617  2.985e+08
    4.6741 3.0449e+08
    4.6865 3.1057e+08
    4.6989 3.1675e+08
    4.7113 3.2302e+08
    4.7237 3.2939e+08
    4.7361 3.3585e+08
    4.7485 3.4241e+08
    4.7609 3.4908e+08
    4.7733 3.5584e+08
    4.7857 3.6271e+08
    4.7981 3.6967e+08
    4.8105 3.7674e+08
    4.8229 3.8392e+08
    4.8353  3.912e+08
    4.8477 3.9859e+08
    4.8601 4.0608e+08
    4.8725 4.1369e+08
    4.8849  4.214e+08
    4.8973 4.2923e+08
    4.9097 4.3717e+08
    4.9221 4.4522e+08
    4.9345 4.5339e+08
    4.9469 4.6166e+08
    4.9593 4.7006e+08
    4.9717 4.7858e+08
     4.984 4.8721e+08
    4.9964 4.9597e+08
    5.0088 5.0484e+08
    5.0212 5.1384e+08
    5.0336 5.2296e+08
     5.046  5.322e+08
    5.0584 5.4158e+08
    5.0708 5.5107e+08
    5.0832  5.607e+08
    5.0956 5.7045e+08
     5.108 5.8033e+08
    5.1204 5.9035e+08
    5.1328 6.0049e+08
    5.1452 6.1077e+08
    5.1576 6.2119e+08
      5.17 6.3174e+08
    5.1824 6.4243e+08
    5.1948 6.5326e+08
    5.2072 6.6422e+08
    5.2196 6.7533e+08
     5.232 6.8658e+08
    5.2444 6.9797e+08
    5.2568 7.0951e+08
    5.2692 7.2119e+08
    5.2816 7.3302e+08
     5.294 7.4499e+08
    5.3064 7.5712e+08
    5.3188 7.6939e+08
    5.3312 7.8182e+08
    5.3436  7.944e+08
     5.356 8.0713e+08
    5.3684 8.2002e+08
    5.3808 8.3306e+08
    5.3932 8.4627e+08
    5.4056 8.5963e+08
     5.418 8.7314e+08
    5.4304 8.8683e+08
    5.4428 9.0067e+08
    5.4552 9.1468e+08
    5.4676 9.2885e+08
      5.48 9.4319e+08
    5.4924  9.577e+08
    5.5048 9.7238e+08
    5.5172 9.8723e+08
    5.5296 1.0022e+09
     5.542 1.0174e+09
    5.5544 1.0328e+09
    5.5668 1.0483e+09
    5.5792 1.0641e+09
    5.5916 1.0799e+09
     5.604  1.096e+09
    5.6164 1.1123e+09
    5.6288 1.1287e+09
    5.6412 1.1453e+09
    5.6535 1.1621e+09
    5.6659 1.1791e+09
    5.6783 1.1963e+09
    5.6907 1.2137e+09
    5.7031 1.2312e+09
    5.7155 1.2489e+09
    5.7279 1.2669e+09
    5.7403  1.285e+09
    5.7527 1.3033e+09
    5.7651 1.3218e+09
    5.7775 1.3406e+09
    5.7899 1.3595e+09
    5.8023 1.3786e+09
    5.8147 1.3979e+09
    5.8271 1.4174e+09
    5.8395 1.4371e+09
    5.8519 1.4571e+09
    5.8643 1.4772e+09
    5.8767 1.4975e+09
    5.8891 1.5181e+09
    5.9015 1.5388e+09
    5.9139 1.5598e+09
    5.9263  1.581e+09
    5.9387 1.6024e+09
    5.9511  1.624e+09
    5.9635 1.6459e+09
    5.9759 1.6679e+09
    5.9883 1.6902e+09
    6.0007 1.7127e+09
    6.0131 1.7354e+09
    6.0255 1.7583e+09
    6.0379 1.7815e+09
    6.0503 1.8049e+09
    6.0627 1.8285e+09
    6.0751 1.8524e+09
    6.0875 1.8764e+09
    6.0999 1.9007e+09
    6.1123 1.9253e+09
    6.1247 1.9501e+09
    6.1371 1.9751e+09
    6.1495 2.0003e+09
    6.1619 2.0258e+09
    6.1743 2.0516e+09
    6.1867 2.0775e+09
    6.1991 2.1038e+09
    6.2115 2.1302e+09
    6.2239 2.1569e+09
    6.2363 2.1839e+09
    6.2487 2.2111e+09
    6.2611 2.2386e+09
    6.2735 2.2662e+09
    6.2859 2.2942e+09
    6.2983 2.3224e+09
    6.3107 2.3509e+09
     6.323 2.3796e+09
    6.3354 2.4086e+09
    6.3478 2.4378e+09
    6.3602 2.4673e+09
    6.3726 2.4971e+09
     6.385 2.5271e+09
    6.3974 2.5574e+09
    6.4098  2.588e+09
    6.4222 2.6188e+09
    6.4346 2.6499e+09
     6.447 2.6813e+09
    6.4594 2.7129e+09
    6.4718 2.7448e+09
    6.4842  2.777e+09
    6.4966 2.8095e+09
     6.509 2.8422e+09
    6.5214 2.8753e+09
    6.5338 2.9085e+09
    6.5462 2.9421e+09
    6.5586  2.976e+09
     6.571 3.0102e+09
    6.5834 3.0446e+09
    6.5958 3.0793e+09
    6.6082 3.1143e+09
    6.6206 3.1496e+09
     6.633 3.1852e+09
    6.6454 3.2211e+09
    6.6578 3.2573e+09
    6.6702 3.2938e+09
    6.6826 3.3305e+09
     6.695 3.3676e+09
    6.7074  3.405e+09
    6.7198 3.4426e+09
    6.7322 3.4806e+09
    6.7446 3.5189e+09
     6.757 3.5575e+09
    6.7694 3.5964e+09
    6.7818 3.6356e+09
    6.7942 3.6751e+09
    6.8066 3.7149e+09
     6.819  3.755e+09
    6.8314 3.7955e+09
    6.8438 3.8362e+09
    6.8562 3.8773e+09
    6.8686 3.9187e+09
     6.881 3.9604e+09
    6.8934 4.0024e+09
    6.9058 4.0448e+09
    6.9182 4.0875e+09
    6.9306 4.1305e+09
     6.943 4.1738e+09
    6.9554 4.2174e+09
    6.9678 4.2614e+09
    6.9801 4.3058e+09
    6.9925 4.3504e+09
    7.0049 4.3954e+09
    7.0173 4.4407e+09
    7.0297 4.4863e+09
    7.0421 4.5323e+09
    7.0545 4.5786e+09
    7.0669 4.6253e+09
    7.0793 4.6723e+09
    7.0917 4.7197e+09
    7.1041 4.7674e+09
    7.1165 4.8154e+09
    7.1289 4.8638e+09
    7.1413 4.9125e+09
    7.1537 4.9616e+09
    7.1661  5.011e+09
    7.1785 5.0608e+09
    7.1909 5.1109e+09
    7.2033 5.1614e+09
    7.2157 5.2122e+09
    7.2281 5.2634e+09
    7.2405  5.315e+09
    7.2529 5.3669e+09
    7.2653 5.4192e+09
    7.2777 5.4718e+09
    7.2901 5.5249e+09
    7.3025 5.5782e+09
    7.3149  5.632e+09
    7.3273 5.6861e+09
    7.3397 5.7405e+09
    7.3521 5.7954e+09
    7.3645 5.8506e+09
    7.3769 5.9062e+09
    7.3893 5.9622e+09
    7.4017 6.0185e+09
    7.4141 6.0752e+09
    7.4265 6.1323e+09
    7.4389 6.1898e+09
    7.4513 6.2477e+09
    7.4637 6.3059e+09
    7.4761 6.3645e+09
    7.4885 6.4236e+09
    7.5009 6.4829e+09
    7.5133 6.5427e+09
    7.5257 6.6029e+09
    7.5381 6.6635e+09
    7.5505 6.7244e+09
    7.5629 6.7858e+09
    7.5753 6.8475e+09
    7.5877 6.9097e+09
    7.6001 6.9722e+09
    7.6125 7.0352e+09
    7.6249 7.0985e+09
    7.6373 7.1622e+09
    7.6496 7.2264e+09
     7.662 7.2909e+09
    7.6744 7.3559e+09
    7.6868 7.4212e+09
    7.6992  7.487e+09
    7.7116 7.5532e+09
     7.724 7.6197e+09
    7.7364 7.6867e+09
    7.7488 7.7542e+09
    7.7612  7.822e+09
    7.7736 7.8902e+09
     7.786 7.9588e+09
    7.7984 8.0279e+09
    7.8108 8.0974e+09
    7.8232 8.1673e+09
    7.8356 8.2376e+09
     7.848 8.3084e+09
    7.8604 8.3795e+09
    7.8728 8.4512e+09
    7.8852 8.5232e+09
    7.8976 8.5956e+09
      7.91 8.6685e+09
    7.9224 8.7418e+09
    7.9348 8.8156e+09
    7.9472 8.8897e+09
    7.9596 8.9643e+09
     7.972 9.0394e+09
    7.9844 9.1149e+09
    7.9968 9.1908e+09
    8.0092 9.2672e+09
    8.0216 9.3439e+09
     8.034 9.4212e+09
    8.0464 9.4989e+09
    8.0588  9.577e+09
    8.0712 9.6556e+09
    8.0836 9.7346e+09
     8.096 9.8141e+09
    8.1084  9.894e+09
    8.1208 9.9743e+09
    8.1332 1.0055e+10
    8.1456 1.0136e+10
     8.158 1.0218e+10
    8.1704   1.03e+10
    8.1828 1.0383e+10
    8.1952 1.0466e+10
    8.2076  1.055e+10
      8.22 1.0634e+10
    8.2324 1.0718e+10
    8.2448 1.0803e+10
    8.2572 1.0888e+10
    8.2696 1.0974e+10
     8.282 1.1061e+10
    8.2944 1.1147e+10
    8.3067 1.1235e+10
    8.3191 1.1322e+10
    8.3315  1.141e+10
    8.3439 1.1499e+10
    8.3563 1.1588e+10
    8.3687 1.1678e+10
    8.3811 1.1768e+10
    8.3935 1.1858e+10
    8.4059 1.1949e+10
    8.4183 1.2041e+10
    8.4307 1.2133e+10
    8.4431 1.2225e+10
    8.4555 1.2318e+10
    8.4679 1.2412e+10
    8.4803 1.2506e+10
    8.4927   1.26e+10
    8.5051 1.2695e+10
    8.5175  1.279e+10
    8.5299 1.2886e+10
    8.5423 1.2983e+10
    8.5547 1.3079e+10
    8.5671 1.3177e+10
    8.5795 1.3275e+10
    8.5919 1.3373e+10
    8.6043 1.3472e+10
    8.6167 1.3571e+10
    8.6291 1.3671e+10
    8.6415 1.3771e+10
    8.6539 1.3872e+10
    8.6663 1.3973e+10
    8.6787 1.4075e+10
    8.6911 1.4177e+10
    8.7035  1.428e+10
    8.7159 1.4384e+10
    8.7283 1.4487e+10
    8.7407 1.4592e+10
    8.7531 1.4697e+10
    8.7655 1.4802e+10
    8.7779 1.4908e+10
    8.7903 1.5014e+10
    8.8027 1.5121e+10
    8.8151 1.5228e+10
    8.8275 1.5336e+10
    8.8399 1.5445e+10
    8.8523 1.5554e+10
    8.8647 1.5663e+10
    8.8771 1.5773e+10
    8.8895 1.5883e+10
    8.9019 1.5994e+10
    8.9143 1.6106e+10
    8.9267 1.6218e+10
    8.9391 1.6331e+10
    8.9515 1.6444e+10
    8.9639 1.6557e+10
    8.9762 1.6671e+10
    8.9886 1.6786e+10
     9.001 1.6901e+10
    9.0134 1.7017e+10
    9.0258 1.7133e+10
    9.0382  1.725e+10
    9.0506 1.7367e+10
     9.063 1.7485e+10
    9.0754 1.7604e+10
    9.0878 1.7723e+10
    9.1002 1.7842e+10
    9.1126 1.7962e+10
     9.125 1.8083e+10
    9.1374 1.8203e+10
    9.1498 1.8325e+10
    9.1622 1.8447e+10
    9.1746  1.857e+10
     9.187 1.8693e+10
    9.1994 1.8817e+10
    9.2118 1.8941e+10
    9.2242 1.9066e+10
    9.2366 1.9192e+10
     9.249 1.9318e+10
    9.2614 1.9444e+10
    9.2738 1.9571e+10
    9.2862 1.9699e+10
    9.2986 1.9827e+10
     9.311 1.9956e+10
    9.3234 2.0085e+10
    9.3358 2.0215e+10
    9.3482 2.0345e+10
    9.3606 2.0476e+10
     9.373 2.0607e+10
    9.3854  2.074e+10
    9.3978 2.0872e+10
    9.4102 2.1005e+10
    9.4226 2.1139e+10
     9.435 2.1273e+10
    9.4474 2.1408e+10
    9.4598 2.1544e+10
    9.4722 2.1679e+10
    9.4846 2.1816e+10
     9.497 2.1953e+10
    9.5094 2.2091e+10
    9.5218 2.2229e+10
    9.5342 2.2368e+10
    9.5466 2.2507e+10
     9.559 2.2647e+10
    9.5714 2.2788e+10
    9.5838 2.2929e+10
    9.5962  2.307e+10
    9.6086 2.3212e+10
     9.621 2.3355e+10
    9.6333 2.3499e+10
    9.6457 2.3643e+10
    9.6581 2.3787e+10
    9.6705 2.3932e+10
    9.6829 2.4078e+10
    9.6953 2.4224e+10
    9.7077 2.4371e+10
    9.7201 2.4518e+10
    9.7325 2.4666e+10
    9.7449 2.4815e+10
    9.7573 2.4964e+10
    9.7697 2.5114e+10
    9.7821 2.5264e+10
    9.7945 2.5415e+10
    9.8069 2.5566e+10
    9.8193 2.5719e+10
    9.8317 2.5871e+10
    9.8441 2.6024e+10
    9.8565 2.6178e+10
    9.8689 2.6333e+10
    9.8813 2.6488e+10
    9.8937 2.6643e+10
    9.9061   2.68e+10
    9.9185 2.6956e+10
    9.9309 2.7114e+10
    9.9433 2.7272e+10
    9.9557  2.743e+10
    9.9681 2.7589e+10
    9.9805 2.7749e+10
    9.9929  2.791e+10
    10.005 2.8071e+10
    10.018 2.8232e+10
     10.03 2.8394e+10
    10.042 2.8557e+10
    10.055  2.872e+10
    10.067 2.8884e+10
     10.08 2.9049e+10
    10.092 2.9214e+10
    10.104  2.938e+10
    10.117 2.9546e+10
    10.129 2.9713e+10
    10.142 2.9881e+10
    10.154 3.0049e+10
    10.166 3.0218e+10
    10.179 3.0387e+10
    10.191 3.0557e+10
    10.204 3.0728e+10
    10.216 3.0899e+10
    10.228 3.1071e+10
    10.241 3.1243e+10
    10.253 3.1416e+10
    10.266  3.159e+10
    10.278 3.1764e+10
     10.29 3.1939e+10
    10.303 3.2114e+10
    10.315 3.2291e+10
    10.328 3.2467e+10
     10.34 3.2645e+10
    10.352 3.2823e+10
    10.365 3.3001e+10
    10.377  3.318e+10
     10.39  3.336e+10
    10.402 3.3541e+10
    10.414 3.3722e+10
    10.427 3.3904e+10
    10.439 3.4086e+10
    10.452 3.4269e+10
    10.464 3.4452e+10
    10.476 3.4636e+10
    10.489 3.4821e+10
    10.501 3.5007e+10
    10.514 3.5193e+10
    10.526 3.5379e+10
    10.538 3.5566e+10
    10.551 3.5754e+10
    10.563 3.5943e+10
    10.576 3.6132e+10
    10.588 3.6322e+10
      10.6 3.6512e+10
    10.613 3.6703e+10
    10.625 3.6895e+10
    10.638 3.7087e+10
     10.65  3.728e+10
    10.662 3.7474e+10
    10.675 3.7668e+10
    10.687 3.7863e+10
      10.7 3.8058e+10
    10.712 3.8254e+10
    10.724 3.8451e+10
    10.737 3.8648e+10
    10.749 3.8846e+10
    10.762 3.9045e+10
    10.774 3.9244e+10
    10.786 3.9444e+10
    10.799 3.9645e+10
    10.811 3.9846e+10
    10.824 4.0048e+10
    10.836  4.025e+10
    10.848 4.0453e+10
    10.861 4.0657e+10
    10.873 4.0861e+10
    10.886 4.1066e+10
    10.898 4.1272e+10
     10.91 4.1478e+10
    10.923 4.1685e+10
    10.935 4.1893e+10
    10.948 4.2101e+10
     10.96  4.231e+10
    10.972 4.2519e+10
    10.985  4.273e+10
    10.997  4.294e+10
     11.01 4.3152e+10
    11.022 4.3364e+10
    11.034 4.3576e+10
    11.047  4.379e+10
    11.059 4.4004e+10
    11.072 4.4218e+10
    11.084 4.4434e+10
    11.096  4.465e+10
    11.109 4.4867e+10
    11.121 4.5083e+10
    11.134 4.5302e+10
    11.146  4.552e+10
    11.158 4.5739e+10
    11.171 4.5959e+10
    11.183  4.618e+10
    11.196 4.6401e+10
    11.208 4.6623e+10
     11.22 4.6845e+10
    11.233 4.7068e+10
    11.245 4.7292e+10
    11.258 4.7516e+10
     11.27 4.7741e+10
    11.282 4.7967e+10
    11.295 4.8193e+10
    11.307 4.8421e+10
    11.319 4.8648e+10
    11.332 4.8876e+10
    11.344 4.9105e+10
    11.357 4.9335e+10
    11.369 4.9565e+10
    11.381 4.9797e+10
    11.394 5.0028e+10
    11.406  5.026e+10
    11.419 5.0493e+10
    11.431 5.0727e+10
    11.443 5.0961e+10
    11.456 5.1196e+10
    11.468 5.1432e+10
    11.481 5.1668e+10
    11.493 5.1904e+10
    11.505 5.2142e+10
    11.518  5.238e+10
     11.53 5.2619e+10
    11.543 5.2859e+10
    11.555 5.3099e+10
    11.567  5.334e+10
     11.58 5.3581e+10
    11.592 5.3824e+10
    11.605 5.4066e+10
    11.617  5.431e+10
    11.629 5.4554e+10
    11.642 5.4799e+10
    11.654 5.5044e+10
    11.667 5.5291e+10
    11.679 5.5537e+10
    11.691 5.5785e+10
    11.704 5.6033e+10
    11.716 5.6282e+10
    11.729 5.6531e+10
    11.741 5.6781e+10
    11.753 5.7032e+10
    11.766 5.7284e+10
    11.778 5.7536e+10
    11.791 5.7789e+10
    11.803 5.8042e+10
    11.815 5.8296e+10
    11.828 5.8551e+10
     11.84 5.8807e+10
    11.853 5.9063e+10
    11.865  5.932e+10
    11.877 5.9577e+10
     11.89 5.9835e+10
    11.902 6.0094e+10
    11.915 6.0353e+10
    11.927 6.0614e+10
    11.939 6.0875e+10
    11.952 6.1136e+10
    11.964 6.1398e+10
    11.977 6.1661e+10
    11.989 6.1924e+10
    12.001 6.2189e+10
    12.014 6.2454e+10
    12.026 6.2719e+10
    12.039 6.2985e+10
    12.051 6.3252e+10
    12.063  6.352e+10
    12.076 6.3788e+10
    12.088 6.4057e+10
    12.101 6.4326e+10
    12.113 6.4597e+10
    12.125 6.4867e+10
    12.138 6.5139e+10
     12.15 6.5411e+10
    12.163 6.5684e+10
    12.175 6.5958e+10
    12.187 6.6232e+10
      12.2 6.6507e+10
    12.212 6.6783e+10
    12.225 6.7059e+10
    12.237 6.7336e+10
    12.249 6.7614e+10
    12.262 6.7892e+10
    12.274 6.8171e+10
    12.287 6.8451e+10
    12.299 6.8731e+10
    12.311 6.9012e+10
    12.324 6.9294e+10
    12.336 6.9576e+10
    12.349 6.9859e+10
    12.361 7.0143e+10
    12.373 7.0427e+10
    12.386 7.0712e+10
    12.398 7.0998e+10
    12.411 7.1284e+10
    12.423 7.1572e+10
    12.435 7.1859e+10
    12.448 7.2147e+10
     12.46 7.2437e+10
    12.473 7.2726e+10
    12.485 7.3017e+10
    12.497 7.3308e+10
     12.51   7.36e+10
    12.522 7.3892e+10
    12.535 7.4186e+10
    12.547  7.448e+10
    12.559 7.4774e+10
    12.572 7.5069e+10
    12.584 7.5365e+10
    12.597 7.5662e+10
    12.609 7.5959e+10
    12.621 7.6257e+10
    12.634 7.6555e+10
    12.646 7.6855e+10
    12.658 7.7155e+10
    12.671 7.7456e+10
    12.683 7.7757e+10
    12.696 7.8059e+10
    12.708 7.8361e+10
     12.72 7.8665e+10
    12.733 7.8969e+10
    12.745 7.9274e+10
    12.758 7.9579e+10
     12.77 7.9885e+10
    12.782 8.0192e+10
    12.795 8.0499e+10
    12.807 8.0807e+10
     12.82 8.1116e+10
    12.832 8.1425e+10
    12.844 8.1736e+10
    12.857 8.2047e+10
    12.869 8.2358e+10
    12.882  8.267e+10
    12.894 8.2983e+10
    12.906 8.3296e+10
    12.919 8.3611e+10
    12.931 8.3926e+10
    12.944 8.4241e+10
    12.956 8.4557e+10
    12.968 8.4875e+10
    12.981 8.5192e+10
    12.993  8.551e+10
    13.006 8.5829e+10
    13.018 8.6149e+10
     13.03 8.6469e+10
    13.043  8.679e+10
    13.055 8.7112e+10
    13.068 8.7434e+10
     13.08 8.7757e+10
    13.092 8.8081e+10
    13.105 8.8405e+10
    13.117  8.873e+10
     13.13 8.9056e+10
    13.142 8.9383e+10
    13.154  8.971e+10
    13.167 9.0037e+10
    13.179 9.0366e+10
    13.192 9.0695e+10
    13.204 9.1025e+10
    13.216 9.1356e+10
    13.229 9.1686e+10
    13.241 9.2018e+10
    13.254 9.2351e+10
    13.266 9.2684e+10
    13.278 9.3019e+10
    13.291 9.3353e+10
    13.303 9.3688e+10
    13.316 9.4024e+10
    13.328 9.4361e+10
     13.34 9.4698e+10
    13.353 9.5036e+10
    13.365 9.5374e+10
    13.378 9.5714e+10
     13.39 9.6054e+10
    13.402 9.6395e+10
    13.415 9.6736e+10
    13.427 9.7078e+10
     13.44 9.7421e+10
    13.452 9.7764e+10
    13.464 9.8108e+10
    13.477 9.8453e+10
    13.489 9.8798e+10
    13.502 9.9145e+10
    13.514 9.9491e+10
    13.526 9.9839e+10
    13.539 1.0019e+11
    13.551 1.0054e+11
    13.564 1.0089e+11
    13.576 1.0124e+11
    13.588 1.0159e+11
    13.601 1.0194e+11
    13.613 1.0229e+11
    13.626 1.0264e+11
    13.638   1.03e+11
     13.65 1.0335e+11
    13.663 1.0371e+11
    13.675 1.0406e+11
    13.688 1.0442e+11
      13.7 1.0477e+11
    13.712 1.0513e+11
    13.725 1.0549e+11
    13.737 1.0585e+11
     13.75 1.0621e+11
    13.762 1.0657e+11
    13.774 1.0693e+11
    13.787 1.0729e+11
    13.799 1.0765e+11
    13.812 1.0802e+11
    13.824 1.0838e+11
    13.836 1.0874e+11
    13.849 1.0911e+11
    13.861 1.0948e+11
    13.874 1.0984e+11
    13.886 1.1021e+11
    13.898 1.1058e+11
    13.911 1.1094e+11
    13.923 1.1131e+11
    13.936 1.1168e+11
    13.948 1.1205e+11
     13.96 1.1243e+11
    13.973  1.128e+11
    13.985 1.1317e+11
    13.997 1.1354e+11
     14.01 1.1392e+11
    14.022 1.1429e+11
    14.035 1.1467e+11
    14.047 1.1504e+11
    14.059 1.1542e+11
    14.072  1.158e+11
    14.084 1.1617e+11
    14.097 1.1655e+11
    14.109 1.1693e+11
    14.121 1.1731e+11
    14.134 1.1769e+11
    14.146 1.1807e+11
    14.159 1.1845e+11
    14.171 1.1884e+11
    14.183 1.1922e+11
    14.196  1.196e+11
    14.208 1.1999e+11
    14.221 1.2037e+11
    14.233 1.2076e+11
    14.245 1.2115e+11
    14.258 1.2153e+11
     14.27 1.2192e+11
    14.283 1.2231e+11
    14.295  1.227e+11
    14.307 1.2309e+11
     14.32 1.2348e+11
    14.332 1.2387e+11
    14.345 1.2426e+11
    14.357 1.2465e+11
    14.369 1.2505e+11
    14.382 1.2544e+11
    14.394 1.2584e+11
    14.407 1.2623e+11
    14.419 1.2663e+11
    14.431 1.2702e+11
    14.444 1.2742e+11
    14.456 1.2782e+11
    14.469 1.2822e+11
    14.481 1.2862e+11
    14.493 1.2902e+11
    14.506 1.2942e+11
    14.518 1.2982e+11
    14.531 1.3022e+11
    14.543 1.3062e+11
    14.555 1.3103e+11
    14.568 1.3143e+11
     14.58 1.3183e+11
    14.593 1.3224e+11
    14.605 1.3264e+11
    14.617 1.3305e+11
     14.63 1.3346e+11
    14.642 1.3387e+11
    14.655 1.3427e+11
    14.667 1.3468e+11
    14.679 1.3509e+11
    14.692  1.355e+11
    14.704 1.3591e+11
    14.717 1.3633e+11
    14.729 1.3674e+11
    14.741 1.3715e+11
    14.754 1.3757e+11
    14.766 1.3798e+11
    14.779 1.3839e+11
    14.791 1.3881e+11
    14.803 1.3923e+11
    14.816 1.3964e+11
    14.828 1.4006e+11
    14.841 1.4048e+11
    14.853  1.409e+11
    14.865 1.4132e+11
    14.878 1.4174e+11
     14.89 1.4216e+11
    14.903 1.4258e+11
    14.915   1.43e+11
    14.927 1.4343e+11
     14.94 1.4385e+11
    14.952 1.4427e+11
    14.965  1.447e+11
    14.977 1.4512e+11
    14.989 1.4555e+11
    15.002 1.4598e+11
    15.014 1.4641e+11
    15.027 1.4683e+11
    15.039 1.4726e+11
    15.051 1.4769e+11
    15.064 1.4812e+11
    15.076 1.4855e+11
    15.089 1.4898e+11
    15.101 1.4942e+11
    15.113 1.4985e+11
    15.126 1.5028e+11
    15.138 1.5072e+11
    15.151 1.5115e+11
    15.163 1.5159e+11
    15.175 1.5202e+11
    15.188 1.5246e+11
      15.2  1.529e+11
    15.213 1.5333e+11
    15.225 1.5377e+11
    15.237 1.5421e+11
     15.25 1.5465e+11
    15.262 1.5509e+11
    15.275 1.5553e+11
    15.287 1.5598e+11
    15.299 1.5642e+11
    15.312 1.5686e+11
    15.324  1.573e+11
    15.336 1.5775e+11
    15.349 1.5819e+11
    15.361 1.5864e+11
    15.374 1.5909e+11
    15.386 1.5953e+11
    15.398 1.5998e+11
    15.411 1.6043e+11
    15.423 1.6088e+11
    15.436 1.6133e+11
    15.448 1.6178e+11
     15.46 1.6223e+11
    15.473 1.6268e+11
    15.485 1.6313e+11
    15.498 1.6358e+11
     15.51 1.6404e+11
    15.522 1.6449e+11
    15.535 1.6495e+11
    15.547  1.654e+11
     15.56 1.6586e+11
    15.572 1.6632e+11
    15.584 1.6677e+11
    15.597 1.6723e+11
    15.609 1.6769e+11
    15.622 1.6815e+11
    15.634 1.6861e+11
    15.646 1.6907e+11
    15.659 1.6953e+11
    15.671 1.6999e+11
    15.684 1.7045e+11
    15.696 1.7092e+11
    15.708 1.7138e+11
    15.721 1.7184e+11
    15.733 1.7231e+11
    15.746 1.7277e+11
    15.758 1.7324e+11
     15.77 1.7371e+11
    15.783 1.7417e+11
    15.795 1.7464e+11
    15.808 1.7511e+11
     15.82 1.7558e+11
    15.832 1.7605e+11
    15.845 1.7652e+11
    15.857 1.7699e+11
     15.87 1.7746e+11
    15.882 1.7794e+11
    15.894 1.7841e+11
    15.907 1.7888e+11
    15.919 1.7936e+11
    15.932 1.7983e+11
    15.944 1.8031e+11
    15.956 1.8078e+11
    15.969 1.8126e+11
    15.981 1.8174e+11
    15.994 1.8222e+11
    16.006  1.827e+11
    16.018 1.8317e+11
    16.031 1.8365e+11
    16.043 1.8413e+11
    16.056 1.8462e+11
    16.068  1.851e+11
     16.08 1.8558e+11
    16.093 1.8606e+11
    16.105 1.8655e+11
    16.118 1.8703e+11
     16.13 1.8752e+11
    16.142   1.88e+11
    16.155 1.8849e+11
    16.167 1.8898e+11
     16.18 1.8946e+11
    16.192 1.8995e+11
    16.204 1.9044e+11
    16.217 1.9093e+11
    16.229 1.9142e+11
    16.242 1.9191e+11
    16.254  1.924e+11
    16.266 1.9289e+11
    16.279 1.9338e+11
    16.291 1.9388e+11
    16.304 1.9437e+11
    16.316 1.9486e+11
    16.328 1.9536e+11
    16.341 1.9586e+11
    16.353 1.9635e+11
    16.366 1.9685e+11
    16.378 1.9735e+11
     16.39 1.9784e+11
    16.403 1.9834e+11
    16.415 1.9884e+11
    16.428 1.9934e+11
     16.44 1.9984e+11
    16.452 2.0034e+11
    16.465 2.0084e+11
    16.477 2.0135e+11
     16.49 2.0185e+11
    16.502 2.0235e+11
    16.514 2.0286e+11
    16.527 2.0336e+11
    16.539 2.0387e+11
    16.552 2.0437e+11
    16.564 2.0488e+11
    16.576 2.0538e+11
    16.589 2.0589e+11
    16.601  2.064e+11
    16.613 2.0691e+11
    16.626 2.0742e+11
    16.638 2.0793e+11
    16.651 2.0844e+11
    16.663 2.0895e+11
    16.675 2.0946e+11
    16.688 2.0998e+11
      16.7 2.1049e+11
    16.713   2.11e+11
    16.725 2.1152e+11
    16.737 2.1203e+11
     16.75 2.1255e+11
    16.762 2.1306e+11
    16.775 2.1358e+11
    16.787  2.141e+11
    16.799 2.1462e+11
    16.812 2.1513e+11
    16.824 2.1565e+11
    16.837 2.1617e+11
    16.849 2.1669e+11
    16.861 2.1721e+11
    16.874 2.1774e+11
    16.886 2.1826e+11
    16.899 2.1878e+11
    16.911  2.193e+11
    16.923 2.1983e+11
    16.936 2.2035e+11
    16.948 2.2088e+11
    16.961  2.214e+11
    16.973 2.2193e+11
    16.985 2.2246e+11
    16.998 2.2298e+11
     17.01 2.2351e+11
    17.023 2.2404e+11
    17.035 2.2457e+11
    17.047  2.251e+11
     17.06 2.2563e+11
    17.072 2.2616e+11
    17.085 2.2669e+11
    17.097 2.2722e+11
    17.109 2.2776e+11
    17.122 2.2829e+11
    17.134 2.2882e+11
    17.147 2.2936e+11
    17.159 2.2989e+11
    17.171 2.3043e+11
    17.184 2.3097e+11
    17.196  2.315e+11
    17.209 2.3204e+11
    17.221 2.3258e+11
    17.233 2.3312e+11
    17.246 2.3365e+11
    17.258  2.342e+11
    17.271 2.3474e+11
    17.283 2.3528e+11
    17.295 2.3582e+11
    17.308 2.3636e+11
     17.32  2.369e+11
    17.333 2.3745e+11
    17.345 2.3799e+11
    17.357 2.3853e+11
     17.37 2.3908e+11
    17.382 2.3963e+11
    17.395 2.4017e+11
    17.407 2.4072e+11
    17.419 2.4127e+11
    17.432 2.4181e+11
    17.444 2.4236e+11
    17.457 2.4291e+11
    17.469 2.4346e+11
    17.481 2.4401e+11
    17.494 2.4456e+11
    17.506 2.4511e+11
    17.519 2.4566e+11
    17.531 2.4622e+11
    17.543 2.4677e+11
    17.556 2.4732e+11
    17.568 2.4788e+11
    17.581 2.4843e+11
    17.593 2.4899e+11
    17.605 2.4954e+11
    17.618  2.501e+11
     17.63 2.5066e+11
    17.643 2.5121e+11
    17.655 2.5177e+11
    17.667 2.5233e+11
     17.68 2.5289e+11
    17.692 2.5345e+11
    17.705 2.5401e+11
    17.717 2.5457e+11
    17.729 2.5513e+11
    17.742  2.557e+11
    17.754 2.5626e+11
    17.767 2.5682e+11
    17.779 2.5739e+11
    17.791 2.5795e+11
    17.804 2.5851e+11
    17.816 2.5908e+11
    17.829 2.5965e+11
    17.841 2.6021e+11
    17.853 2.6078e+11
    17.866 2.6135e+11
    17.878 2.6192e+11
    17.891 2.6248e+11
    17.903 2.6305e+11
    17.915 2.6362e+11
    17.928  2.642e+11
     17.94 2.6477e+11
    17.952 2.6534e+11
    17.965 2.6591e+11
    17.977 2.6648e+11
     17.99 2.6706e+11
    18.002 2.6763e+11
    18.014  2.682e+11
    18.027 2.6878e+11
    18.039 2.6935e+11
    18.052 2.6993e+11
    18.064 2.7051e+11
    18.076 2.7108e+11
    18.089 2.7166e+11
    18.101 2.7224e+11
    18.114 2.7282e+11
    18.126  2.734e+11
    18.138 2.7398e+11
    18.151 2.7456e+11
    18.163 2.7514e+11
    18.176 2.7572e+11
    18.188  2.763e+11
      18.2 2.7689e+11
    18.213 2.7747e+11
    18.225 2.7805e+11
    18.238 2.7864e+11
     18.25 2.7922e+11
    18.262 2.7981e+11
    18.275 2.8039e+11
    18.287 2.8098e+11
      18.3 2.8157e+11
    18.312 2.8215e+11
    18.324 2.8274e+11
    18.337 2.8333e+11
    18.349 2.8392e+11
    18.362 2.8451e+11
    18.374  2.851e+11
    18.386 2.8569e+11
    18.399 2.8628e+11
    18.411 2.8687e+11
    18.424 2.8747e+11
    18.436 2.8806e+11
    18.448 2.8865e+11
    18.461 2.8925e+11
    18.473 2.8984e+11
    18.486 2.9044e+11
    18.498 2.9103e+11
     18.51 2.9163e+11
    18.523 2.9222e+11
    18.535 2.9282e+11
    18.548 2.9342e+11
     18.56 2.9402e+11
    18.572 2.9462e+11
    18.585 2.9522e+11
    18.597 2.9582e+11
     18.61 2.9642e+11
    18.622 2.9702e+11
    18.634 2.9762e+11
    18.647 2.9822e+11
    18.659 2.9882e+11
    18.672 2.9943e+11
    18.684 3.0003e+11
    18.696 3.0063e+11
    18.709 3.0124e+11
    18.721 3.0184e+11
    18.734 3.0245e+11
    18.746 3.0305e+11
    18.758 3.0366e+11
    18.771 3.0427e+11
    18.783 3.0488e+11
    18.796 3.0548e+11
    18.808 3.0609e+11
     18.82  3.067e+11
    18.833 3.0731e+11
    18.845 3.0792e+11
    18.858 3.0853e+11
     18.87 3.0915e+11
    18.882 3.0976e+11
    18.895 3.1037e+11
    18.907 3.1098e+11
     18.92 3.1159e+11
    18.932 3.1221e+11
    18.944 3.1282e+11
    18.957 3.1344e+11
    18.969 3.1405e+11
    18.982 3.1467e+11
    18.994 3.1529e+11
    19.006  3.159e+11
    19.019 3.1652e+11
    19.031 3.1714e+11
    19.044 3.1776e+11
    19.056 3.1838e+11
    19.068   3.19e+11
    19.081 3.1962e+11
    19.093 3.2024e+11
    19.106 3.2086e+11
    19.118 3.2148e+11
     19.13  3.221e+11
    19.143 3.2272e+11
    19.155 3.2335e+11
    19.168 3.2397e+11
     19.18 3.2459e+11
    19.192 3.2522e+11
    19.205 3.2584e+11
    19.217 3.2647e+11
     19.23  3.271e+11
    19.242 3.2772e+11
    19.254 3.2835e+11
    19.267 3.2898e+11
    19.279 3.2961e+11
    19.291 3.3023e+11
    19.304 3.3086e+11
    19.316 3.3149e+11
    19.329 3.3212e+11
    19.341 3.3275e+11
    19.353 3.3339e+11
    19.366 3.3402e+11
    19.378 3.3465e+11
    19.391 3.3528e+11
    19.403 3.3591e+11
    19.415 3.3655e+11
    19.428 3.3718e+11
     19.44 3.3782e+11
    19.453 3.3845e+11
    19.465 3.3909e+11
    19.477 3.3972e+11
     19.49 3.4036e+11
    19.502   3.41e+11
    19.515 3.4163e+11
    19.527 3.4227e+11
    19.539 3.4291e+11
    19.552 3.4355e+11
    19.564 3.4419e+11
    19.577 3.4483e+11
    19.589 3.4547e+11
    19.601 3.4611e+11
    19.614 3.4676e+11
    19.626  3.474e+11
    19.639 3.4804e+11
    19.651 3.4868e+11
    19.663 3.4933e+11
    19.676 3.4997e+11
    19.688 3.5061e+11
    19.701 3.5126e+11
    19.713  3.519e+11
    19.725 3.5255e+11
    19.738  3.532e+11
     19.75 3.5384e+11
    19.763 3.5449e+11
    19.775 3.5514e+11
    19.787 3.5579e+11
      19.8 3.5643e+11
    19.812 3.5708e+11
    19.825 3.5773e+11
    19.837 3.5838e+11
    19.849 3.5903e+11
    19.862 3.5968e+11
    19.874 3.6034e+11
    19.887 3.6099e+11
    19.899 3.6164e+11
    19.911 3.6229e+11
    19.924 3.6295e+11
    19.936  3.636e+11
    19.949 3.6426e+11
    19.961 3.6491e+11
    19.973 3.6557e+11
    19.986 3.6622e+11
    19.998 3.6688e+11
    20.011 3.6754e+11
    20.023 3.6819e+11
    20.035 3.6885e+11
    20.048 3.6951e+11
     20.06 3.7017e+11
    20.073 3.7083e+11
    20.085 3.7149e+11
    20.097 3.7215e+11
     20.11 3.7281e+11
    20.122 3.7347e+11
    20.135 3.7413e+11
    20.147 3.7479e+11
    20.159 3.7545e+11
    20.172 3.7612e+11
    20.184 3.7678e+11
    20.197 3.7744e+11
    20.209 3.7811e+11
    20.221 3.7877e+11
    20.234 3.7944e+11
    20.246  3.801e+11
    20.259 3.8077e+11
    20.271 3.8144e+11
    20.283  3.821e+11
    20.296 3.8277e+11
    20.308 3.8344e+11
    20.321 3.8411e+11
    20.333 3.8478e+11
    20.345 3.8545e+11
    20.358 3.8611e+11
     20.37 3.8678e+11
    20.383 3.8745e+11
    20.395 3.8813e+11
    20.407  3.888e+11
     20.42 3.8947e+11
    20.432 3.9014e+11
    20.445 3.9082e+11
    20.457 3.9149e+11
    20.469 3.9216e+11
    20.482 3.9284e+11
    20.494 3.9351e+11
    20.507 3.9419e+11
    20.519 3.9486e+11
    20.531 3.9554e+11
    20.544 3.9621e+11
    20.556 3.9689e+11
    20.569 3.9757e+11
    20.581 3.9825e+11
    20.593 3.9892e+11
    20.606 3.9961e+11
    20.618 4.0028e+11
     20.63 4.0096e+11
    20.643 4.0164e+11
    20.655 4.0232e+11
    20.668   4.03e+11
     20.68 4.0369e+11
    20.692 4.0437e+11
    20.705 4.0505e+11
    20.717 4.0573e+11
     20.73 4.0642e+11
    20.742  4.071e+11
    20.754 4.0778e+11
    20.767 4.0847e+11
    20.779 4.0915e+11
    20.792 4.0984e+11
    20.804 4.1053e+11
    20.816 4.1121e+11
    20.829  4.119e+11
    20.841 4.1258e+11
    20.854 4.1327e+11
    20.866 4.1396e+11
    20.878 4.1465e+11
    20.891 4.1534e+11
    20.903 4.1603e+11
    20.916 4.1672e+11
    20.928 4.1741e+11
     20.94  4.181e+11
    20.953 4.1879e+11
    20.965 4.1948e+11
    20.978 4.2017e+11
     20.99 4.2086e+11
    21.002 4.2156e+11
    21.015 4.2225e+11
    21.027 4.2294e+11
     21.04 4.2364e+11
    21.052 4.2433e+11
    21.064 4.2503e+11
    21.077 4.2572e+11
    21.089 4.2642e+11
    21.102 4.2712e+11
    21.114 4.2781e+11
    21.126 4.2851e+11
    21.139  4.292e+11
    21.151  4.299e+11
    21.164  4.306e+11
    21.176  4.313e+11
    21.188   4.32e+11
    21.201  4.327e+11
    21.213  4.334e+11
    21.226  4.341e+11
    21.238  4.348e+11
     21.25  4.355e+11
    21.263  4.362e+11
    21.275  4.369e+11
    21.288 4.3761e+11
      21.3 4.3831e+11
    21.312 4.3901e+11
    21.325 4.3972e+11
    21.337 4.4042e+11
     21.35 4.4112e+11
    21.362 4.4183e+11
    21.374 4.4253e+11
    21.387 4.4324e+11
    21.399 4.4395e+11
    21.412 4.4465e+11
    21.424 4.4536e+11
    21.436 4.4607e+11
    21.449 4.4677e+11
    21.461 4.4748e+11
    21.474 4.4819e+11
    21.486  4.489e+11
    21.498 4.4961e+11
    21.511 4.5032e+11
    21.523 4.5103e+11
    21.536 4.5174e+11
    21.548 4.5245e+11
     21.56 4.5316e+11
    21.573 4.5388e+11
    21.585 4.5459e+11
    21.598  4.553e+11
     21.61 4.5601e+11
    21.622 4.5673e+11
    21.635 4.5744e+11
    21.647 4.5816e+11
     21.66 4.5887e+11
    21.672 4.5958e+11
    21.684  4.603e+11
    21.697 4.6102e+11
    21.709 4.6173e+11
    21.722 4.6245e+11
    21.734 4.6317e+11
    21.746 4.6388e+11
    21.759  4.646e+11
    21.771 4.6532e+11
    21.784 4.6604e+11
    21.796 4.6676e+11
    21.808 4.6748e+11
    21.821  4.682e+11
    21.833 4.6892e+11
    21.846 4.6964e+11
    21.858 4.7036e+11
     21.87 4.7108e+11
    21.883  4.718e+11
    21.895 4.7252e+11
    21.908 4.7325e+11
     21.92 4.7397e+11
    21.932 4.7469e+11
    21.945 4.7542e+11
    21.957 4.7614e+11
    21.969 4.7687e+11
    21.982 4.7759e+11
    21.994 4.7832e+11
    22.007 4.7904e+11
    22.019 4.7977e+11
    22.031 4.8049e+11
    22.044 4.8122e+11
    22.056 4.8195e+11
    22.069 4.8267e+11
    22.081 4.8341e+11
    22.093 4.8413e+11
    22.106 4.8486e+11
    22.118 4.8559e+11
    22.131 4.8632e+11
    22.143 4.8705e+11
    22.155 4.8778e+11
    22.168 4.8851e+11
     22.18 4.8924e+11
    22.193 4.8998e+11
    22.205 4.9071e+11
    22.217 4.9144e+11
     22.23 4.9217e+11
    22.242  4.929e+11
    22.255 4.9364e+11
    22.267 4.9437e+11
    22.279  4.951e+11
    22.292 4.9584e+11
    22.304 4.9657e+11
    22.317 4.9731e+11
    22.329 4.9805e+11
    22.341 4.9878e+11
    22.354 4.9952e+11
    22.366 5.0025e+11
    22.379 5.0099e+11
    22.391 5.0173e+11
    22.403 5.0247e+11
    22.416  5.032e+11
    22.428 5.0394e+11
    22.441 5.0468e+11
    22.453 5.0542e+11
    22.465 5.0616e+11
    22.478  5.069e+11
     22.49 5.0764e+11
    22.503 5.0838e+11
    22.515 5.0912e+11
    22.527 5.0986e+11
     22.54 5.1061e+11
    22.552 5.1135e+11
    22.565 5.1209e+11
    22.577 5.1283e+11
    22.589 5.1358e+11
    22.602 5.1432e+11
    22.614 5.1507e+11
    22.627 5.1581e+11
    22.639 5.1655e+11
    22.651  5.173e+11
    22.664 5.1805e+11
    22.676 5.1879e+11
    22.689 5.1954e+11
    22.701 5.2028e+11
    22.713 5.2103e+11
    22.726 5.2178e+11
    22.738 5.2253e+11
    22.751 5.2327e+11
    22.763 5.2402e+11
    22.775 5.2477e+11
    22.788 5.2552e+11
      22.8 5.2627e+11
    22.813 5.2702e+11
    22.825 5.2777e+11
    22.837 5.2852e+11
     22.85 5.2927e+11
    22.862 5.3002e+11
    22.875 5.3077e+11
    22.887 5.3152e+11
    22.899 5.3228e+11
    22.912 5.3303e+11
    22.924 5.3378e+11
    22.937 5.3454e+11
    22.949 5.3529e+11
    22.961 5.3604e+11
    22.974  5.368e+11
    22.986 5.3755e+11
    22.999 5.3831e+11
    23.011 5.3906e+11
    23.023 5.3982e+11
    23.036 5.4058e+11
    23.048 5.4133e+11
    23.061 5.4209e+11
    23.073 5.4284e+11
    23.085  5.436e+11
    23.098 5.4436e+11
     23.11 5.4512e+11
    23.123 5.4588e+11
    23.135 5.4664e+11
    23.147  5.474e+11
     23.16 5.4816e+11
    23.172 5.4891e+11
    23.185 5.4967e+11
    23.197 5.5043e+11
    23.209  5.512e+11
    23.222 5.5196e+11
    23.234 5.5272e+11
    23.247 5.5348e+11
    23.259 5.5424e+11
    23.271 5.5501e+11
    23.284 5.5577e+11
    23.296 5.5653e+11
    23.308  5.573e+11
    23.321 5.5806e+11
    23.333 5.5882e+11
    23.346 5.5959e+11
    23.358 5.6035e+11
     23.37 5.6112e+11
    23.383 5.6188e+11
    23.395 5.6265e+11
    23.408 5.6342e+11
     23.42 5.6418e+11
    23.432 5.6495e+11
    23.445 5.6572e+11
    23.457 5.6648e+11
     23.47 5.6725e+11
    23.482 5.6802e+11
    23.494 5.6879e+11
    23.507 5.6956e+11
    23.519 5.7033e+11
    23.532  5.711e+11
    23.544 5.7187e+11
    23.556 5.7264e+11
    23.569 5.7341e+11
    23.581 5.7418e+11
    23.594 5.7495e+11
    23.606 5.7572e+11
    23.618 5.7649e+11
    23.631 5.7726e+11
    23.643 5.7804e+11
    23.656 5.7881e+11
    23.668 5.7958e+11
     23.68 5.8036e+11
    23.693 5.8113e+11
    23.705  5.819e+11
    23.718 5.8268e+11
     23.73 5.8345e+11
    23.742 5.8423e+11
    23.755   5.85e+11
    23.767 5.8578e+11
     23.78 5.8655e+11
    23.792 5.8733e+11
    23.804 5.8811e+11
    23.817 5.8888e+11
    23.829 5.8966e+11
    23.842 5.9044e+11
    23.854 5.9122e+11
    23.866   5.92e+11
    23.879 5.9277e+11
    23.891 5.9355e+11
    23.904 5.9433e+11
    23.916 5.9511e+11
    23.928 5.9589e+11
    23.941 5.9667e+11
    23.953 5.9745e+11
    23.966 5.9823e+11
    23.978 5.9901e+11
     23.99 5.9979e+11
    24.003 6.0057e+11
    24.015 6.0136e+11
    24.028 6.0214e+11
     24.04 6.0292e+11
    24.052  6.037e+11
    24.065 6.0449e+11
    24.077 6.0527e+11
     24.09 6.0605e+11
    24.102 6.0683e+11
    24.114 6.0762e+11
    24.127 6.0841e+11
    24.139 6.0919e+11
    24.152 6.0998e+11
    24.164 6.1076e+11
    24.176 6.1155e+11
    24.189 6.1233e+11
    24.201 6.1312e+11
    24.214 6.1391e+11
    24.226 6.1469e+11
    24.238 6.1548e+11
    24.251 6.1627e+11
    24.263 6.1706e+11
    24.276 6.1785e+11
    24.288 6.1863e+11
      24.3 6.1942e+11
    24.313 6.2021e+11
    24.325   6.21e+11
    24.338 6.2179e+11
     24.35 6.2258e+11
    24.362 6.2337e+11
    24.375 6.2416e+11
    24.387 6.2495e+11
      24.4 6.2574e+11
    24.412 6.2654e+11
    24.424 6.2733e+11
    24.437 6.2812e+11
    24.449 6.2891e+11
    24.462  6.297e+11
    24.474  6.305e+11
    24.486 6.3129e+11
    24.499 6.3208e+11
    24.511 6.3288e+11
    24.524 6.3367e+11
    24.536 6.3446e+11
    24.548 6.3526e+11
    24.561 6.3605e+11
    24.573 6.3685e+11
    24.585 6.3765e+11
    24.598 6.3844e+11
     24.61 6.3924e+11
    24.623 6.4003e+11
    24.635 6.4083e+11
    24.647 6.4163e+11
     24.66 6.4242e+11
    24.672 6.4322e+11
    24.685 6.4402e+11
    24.697 6.4482e+11
    24.709 6.4561e+11
    24.722 6.4641e+11
    24.734 6.4721e+11
    24.747 6.4801e+11
    24.759 6.4881e+11
    24.771 6.4961e+11
    24.784 6.5041e+11
    24.796 6.5121e+11
    24.809 6.5201e+11
    24.821 6.5281e+11
    24.833 6.5362e+11
    24.846 6.5442e+11
    24.858 6.5522e+11
    24.871 6.5602e+11
    24.883 6.5682e+11
    24.895 6.5762e+11
    24.908 6.5843e+11
     24.92 6.5923e+11
    24.933 6.6003e+11
    24.945 6.6084e+11
    24.957 6.6164e+11
     24.97 6.6244e+11
    24.982 6.6325e+11
    24.995 6.6405e+11
    25.007 6.6486e+11
    25.019 6.6566e+11
    25.032 6.6647e+11
    25.044 6.6727e+11
    25.057 6.6808e+11
    25.069 6.6889e+11
    25.081 6.6969e+11
    25.094  6.705e+11
    25.106 6.7131e+11
    25.119 6.7211e+11
    25.131 6.7292e+11
    25.143 6.7373e+11
    25.156 6.7454e+11
    25.168 6.7535e+11
    25.181 6.7616e+11
    25.193 6.7697e+11
    25.205 6.7778e+11
    25.218 6.7858e+11
     25.23  6.794e+11
    25.243  6.802e+11
    25.255 6.8102e+11
    25.267 6.8182e+11
     25.28 6.8264e+11
    25.292 6.8345e+11
    25.305 6.8426e+11
    25.317 6.8507e+11
    25.329 6.8588e+11
    25.342  6.867e+11
    25.354 6.8751e+11
    25.367 6.8832e+11
    25.379 6.8913e+11
    25.391 6.8994e+11
    25.404 6.9076e+11
    25.416 6.9157e+11
    25.429 6.9239e+11
    25.441  6.932e+11
    25.453 6.9402e+11
    25.466 6.9483e+11
    25.478 6.9565e+11
    25.491 6.9646e+11
    25.503 6.9728e+11
    25.515 6.9809e+11
    25.528 6.9891e+11
     25.54 6.9972e+11
    25.553 7.0054e+11
    25.565 7.0136e+11
    25.577 7.0217e+11
     25.59 7.0299e+11
    25.602 7.0381e+11
    25.615 7.0463e+11
    25.627 7.0544e+11
    25.639 7.0626e+11
    25.652 7.0708e+11
    25.664  7.079e+11
    25.677 7.0872e+11
    25.689 7.0954e+11
    25.701 7.1036e+11
    25.714 7.1118e+11
    25.726   7.12e+11
    25.739 7.1282e+11
    25.751 7.1364e+11
    25.763 7.1446e+11
    25.776 7.1528e+11
    25.788  7.161e+11
    25.801 7.1692e+11
    25.813 7.1775e+11
    25.825 7.1857e+11
    25.838 7.1939e+11
     25.85 7.2021e+11
    25.863 7.2103e+11
    25.875 7.2186e+11
    25.887 7.2268e+11
      25.9  7.235e+11
    25.912 7.2433e+11
    25.924 7.2515e+11
    25.937 7.2597e+11
    25.949  7.268e+11
    25.962 7.2762e+11
    25.974 7.2845e+11
    25.986 7.2927e+11
    25.999  7.301e+11
    26.011 7.3093e+11
    26.024 7.3175e+11
    26.036 7.3257e+11
    26.048  7.334e+11
    26.061 7.3423e+11
    26.073 7.3505e+11
    26.086 7.3588e+11
    26.098 7.3671e+11
     26.11 7.3754e+11
    26.123 7.3837e+11
    26.135 7.3919e+11
    26.148 7.4002e+11
     26.16 7.4085e+11
    26.172 7.4168e+11
    26.185 7.4251e+11
    26.197 7.4333e+11
     26.21 7.4417e+11
    26.222 7.4499e+11
    26.234 7.4583e+11
    26.247 7.4665e+11
    26.259 7.4748e+11
    26.272 7.4831e+11
    26.284 7.4914e+11
    26.296 7.4998e+11
    26.309  7.508e+11
    26.321 7.5164e+11
    26.334 7.5247e+11
    26.346  7.533e+11
    26.358 7.5413e+11
    26.371 7.5497e+11
    26.383  7.558e+11
    26.396 7.5663e+11
    26.408 7.5747e+11
     26.42  7.583e+11
    26.433 7.5913e+11
    26.445 7.5996e+11
    26.458  7.608e+11
     26.47 7.6163e+11
    26.482 7.6246e+11
    26.495  7.633e+11
    26.507 7.6413e+11
     26.52 7.6497e+11
    26.532  7.658e+11
    26.544 7.6664e+11
    26.557 7.6747e+11
    26.569 7.6831e+11
    26.582 7.6915e+11
    26.594 7.6998e+11
    26.606 7.7082e+11
    26.619 7.7166e+11
    26.631 7.7249e+11
    26.644 7.7333e+11
    26.656 7.7417e+11
    26.668 7.7501e+11
    26.681 7.7584e+11
    26.693 7.7668e+11
    26.706 7.7752e+11
    26.718 7.7836e+11
     26.73 7.7919e+11
    26.743 7.8003e+11
    26.755 7.8088e+11
    26.768 7.8171e+11
     26.78 7.8255e+11
    26.792 7.8339e+11
    26.805 7.8423e+11
    26.817 7.8507e+11
     26.83 7.8591e+11
    26.842 7.8675e+11
    26.854 7.8759e+11
    26.867 7.8844e+11
    26.879 7.8928e+11
    26.892 7.9012e+11
    26.904 7.9096e+11
    26.916  7.918e+11
    26.929 7.9264e+11
    26.941 7.9349e+11
    26.954 7.9432e+11
    26.966 7.9517e+11
    26.978 7.9601e+11
    26.991 7.9685e+11
    27.003  7.977e+11
    27.016 7.9854e+11
    27.028 7.9938e+11
     27.04 8.0023e+11
    27.053 8.0107e+11
    27.065 8.0192e+11
    27.078 8.0276e+11
     27.09 8.0361e+11
    27.102 8.0445e+11
    27.115  8.053e+11
    27.127 8.0614e+11
     27.14 8.0699e+11
    27.152 8.0783e+11
    27.164 8.0867e+11
    27.177 8.0952e+11
    27.189 8.1037e+11
    27.202 8.1122e+11
    27.214 8.1206e+11
    27.226 8.1291e+11
    27.239 8.1376e+11
    27.251  8.146e+11
    27.263 8.1545e+11
    27.276  8.163e+11
    27.288 8.1715e+11
    27.301 8.1799e+11
    27.313 8.1884e+11
    27.325 8.1969e+11
    27.338 8.2054e+11
     27.35 8.2139e+11
    27.363 8.2224e+11
    27.375 8.2309e+11
    27.387 8.2393e+11
      27.4 8.2478e+11
    27.412 8.2564e+11
    27.425 8.2648e+11
    27.437 8.2734e+11
    27.449 8.2819e+11
    27.462 8.2903e+11
    27.474 8.2989e+11
    27.487 8.3074e+11
    27.499 8.3159e+11
    27.511 8.3244e+11
    27.524 8.3329e+11
    27.536 8.3414e+11
    27.549   8.35e+11
    27.561 8.3585e+11
    27.573  8.367e+11
    27.586 8.3755e+11
    27.598  8.384e+11
    27.611 8.3926e+11
    27.623 8.4011e+11
    27.635 8.4096e+11
    27.648 8.4181e+11
     27.66 8.4267e+11
    27.673 8.4352e+11
    27.685 8.4438e+11
    27.697 8.4523e+11
     27.71 8.4608e+11
    27.722 8.4694e+11
    27.735 8.4779e+11
    27.747 8.4864e+11
    27.759 8.4951e+11
    27.772 8.5036e+11
    27.784 8.5121e+11
    27.797 8.5207e+11
    27.809 8.5293e+11
    27.821 8.5378e+11
    27.834 8.5464e+11
    27.846 8.5549e+11
    27.859 8.5635e+11
    27.871 8.5721e+11
    27.883 8.5806e+11
    27.896 8.5892e+11
    27.908 8.5977e+11
    27.921 8.6063e+11
    27.933 8.6149e+11
    27.945 8.6235e+11
    27.958  8.632e+11
     27.97 8.6406e+11
    27.983 8.6492e+11
    27.995 8.6578e+11
    28.007 8.6664e+11
     28.02  8.675e+11
    28.032 8.6836e+11
    28.045 8.6922e+11
    28.057 8.7008e+11
    28.069 8.7094e+11
    28.082  8.718e+11
    28.094 8.7265e+11
    28.107 8.7351e+11
    28.119 8.7437e+11
    28.131 8.7523e+11
    28.144 8.7609e+11
    28.156 8.7695e+11
    28.169 8.7782e+11
    28.181 8.7868e+11
    28.193 8.7954e+11
    28.206  8.804e+11
    28.218 8.8126e+11
    28.231 8.8212e+11
    28.243 8.8298e+11
    28.255 8.8385e+11
    28.268 8.8471e+11
     28.28 8.8557e+11
    28.293 8.8643e+11
    28.305 8.8729e+11
    28.317 8.8815e+11
     28.33 8.8902e+11
    28.342 8.8989e+11
    28.355 8.9074e+11
    28.367 8.9161e+11
    28.379 8.9248e+11
    28.392 8.9334e+11
    28.404  8.942e+11
    28.417 8.9506e+11
    28.429 8.9593e+11
    28.441 8.9679e+11
    28.454 8.9766e+11
    28.466 8.9852e+11
    28.479 8.9939e+11
    28.491 9.0025e+11
    28.503 9.0112e+11
    28.516 9.0198e+11
    28.528 9.0285e+11
    28.541 9.0372e+11
    28.553 9.0458e+11
    28.565 9.0544e+11
    28.578 9.0631e+11
     28.59 9.0718e+11
    28.602 9.0804e+11
    28.615 9.0891e+11
    28.627 9.0978e+11
     28.64 9.1064e+11
    28.652 9.1151e+11
    28.664 9.1238e+11
    28.677 9.1325e+11
    28.689 9.1412e+11
    28.702 9.1498e+11
    28.714 9.1585e+11
    28.726 9.1672e+11
    28.739 9.1759e+11
    28.751 9.1846e+11
    28.764 9.1932e+11
    28.776 9.2019e+11
    28.788 9.2106e+11
    28.801 9.2193e+11
    28.813  9.228e+11
    28.826 9.2367e+11
    28.838 9.2454e+11
     28.85  9.254e+11
    28.863 9.2628e+11
    28.875 9.2715e+11
    28.888 9.2802e+11
      28.9 9.2888e+11
    28.912 9.2976e+11
    28.925 9.3063e+11
    28.937  9.315e+11
     28.95 9.3237e+11
    28.962 9.3324e+11
    28.974 9.3411e+11
    28.987 9.3498e+11
    28.999 9.3585e+11
    29.012 9.3672e+11
    29.024 9.3759e+11
    29.036 9.3847e+11
    29.049 9.3934e+11
    29.061 9.4021e+11
    29.074 9.4109e+11
    29.086 9.4196e+11
    29.098 9.4283e+11
    29.111  9.437e+11
    29.123 9.4458e+11
    29.136 9.4545e+11
    29.148 9.4632e+11
     29.16 9.4719e+11
    29.173 9.4807e+11
    29.185 9.4894e+11
    29.198 9.4981e+11
     29.21 9.5069e+11
    29.222 9.5156e+11
    29.235 9.5243e+11
    29.247 9.5331e+11
     29.26 9.5418e+11
    29.272 9.5506e+11
    29.284 9.5593e+11
    29.297 9.5681e+11
    29.309 9.5768e+11
    29.322 9.5856e+11
    29.334 9.5943e+11
    29.346 9.6031e+11
    29.359 9.6118e+11
    29.371 9.6206e+11
    29.384 9.6293e+11
    29.396 9.6381e+11
    29.408 9.6469e+11
    29.421 9.6556e+11
    29.433 9.6644e+11
    29.446 9.6732e+11
    29.458 9.6819e+11
     29.47 9.6907e+11
    29.483 9.6995e+11
    29.495 9.7083e+11
    29.508  9.717e+11
     29.52 9.7258e+11
    29.532 9.7345e+11
    29.545 9.7434e+11
    29.557 9.7521e+11
     29.57 9.7609e+11
    29.582 9.7697e+11
    29.594 9.7784e+11
    29.607 9.7872e+11
    29.619  9.796e+11
    29.632 9.8048e+11
    29.644 9.8135e+11
    29.656 9.8224e+11
    29.669 9.8311e+11
    29.681 9.8399e+11
    29.694 9.8487e+11
    29.706 9.8575e+11
    29.718 9.8663e+11
    29.731 9.8751e+11
    29.743 9.8839e+11
    29.756 9.8927e+11
    29.768 9.9015e+11
     29.78 9.9103e+11
    29.793 9.9191e+11
    29.805 9.9279e+11
    29.818 9.9367e+11
     29.83 9.9455e+11
    29.842 9.9543e+11
    29.855 9.9631e+11
    29.867 9.9719e+11
     29.88 9.9807e+11
    29.892 9.9895e+11
    29.904 9.9983e+11
    29.917 1.0007e+12
    29.929 1.0016e+12
    29.941 1.0025e+12
    29.954 1.0034e+12
    29.966 1.0042e+12
    29.979 1.0051e+12
    29.991  1.006e+12
    30.003 1.0069e+12
