RRKM rate, sf=0.970, S*=-14.73, E0=0.85 and Delta=-0.00
   En (eV)    k (s-1)
         0          0
  0.012398          0
  0.024796          0
  0.037194          0
  0.049593          0
  0.061991          0
  0.074389          0
  0.086787          0
  0.099185          0
   0.11158          0
   0.12398          0
   0.13638          0
   0.14878          0
   0.16118          0
   0.17357          0
   0.18597          0
   0.19837          0
   0.21077          0
   0.22317          0
   0.23556          0
   0.24796          0
   0.26036          0
   0.27276          0
   0.28516          0
   0.29756          0
   0.30995          0
   0.32235          0
   0.33475          0
   0.34715          0
   0.35955          0
   0.37194          0
   0.38434          0
   0.39674          0
   0.40914          0
   0.42154          0
   0.43393          0
   0.44633          0
   0.45873          0
   0.47113          0
   0.48353          0
   0.49593          0
   0.50832          0
   0.52072          0
   0.53312          0
   0.54552          0
   0.55792          0
   0.57031          0
   0.58271          0
   0.59511          0
   0.60751          0
   0.61991          0
    0.6323          0
    0.6447          0
    0.6571          0
    0.6695          0
    0.6819          0
    0.6943          0
   0.70669          0
   0.71909          0
   0.73149          0
   0.74389          0
   0.75629          0
   0.76868          0
   0.78108          0
   0.79348          0
   0.80588          0
   0.81828          0
   0.83067          0
   0.84307          0
   0.85547     6.8542
   0.86787     16.069
   0.88027     37.731
   0.89267     65.731
   0.90506     108.38
   0.91746     168.42
   0.92986     252.49
   0.94226     370.56
   0.95466     526.64
   0.96705     737.05
   0.97945     1004.8
   0.99185     1352.1
    1.0042     1786.7
    1.0166     2333.9
     1.029       3010
    1.0414     3842.6
    1.0538     4856.6
    1.0662     6082.3
    1.0786     7555.3
     1.091     9310.1
    1.1034      11394
    1.1158      13848
    1.1282      16730
    1.1406      20091
     1.153      24000
    1.1654      28519
    1.1778      33726
    1.1902      39701
    1.2026      46532
     1.215      54316
    1.2274      63153
    1.2398      73156
    1.2522      84443
    1.2646      97144
     1.277 1.1139e+05
    1.2894 1.2734e+05
    1.3018 1.4514e+05
    1.3142 1.6496e+05
    1.3266 1.8698e+05
     1.339 2.1139e+05
    1.3514 2.3839e+05
    1.3638 2.6818e+05
    1.3762   3.01e+05
    1.3886 3.3709e+05
     1.401 3.7669e+05
    1.4134 4.2006e+05
    1.4258 4.6749e+05
    1.4382 5.1927e+05
    1.4506  5.757e+05
     1.463 6.3712e+05
    1.4754 7.0384e+05
    1.4878 7.7624e+05
    1.5002 8.5467e+05
    1.5126 9.3954e+05
     1.525 1.0312e+06
    1.5374 1.1302e+06
    1.5498 1.2368e+06
    1.5622 1.3516e+06
    1.5746  1.475e+06
     1.587 1.6075e+06
    1.5994 1.7496e+06
    1.6118 1.9019e+06
    1.6242  2.065e+06
    1.6366 2.2393e+06
     1.649 2.4254e+06
    1.6613 2.6241e+06
    1.6737  2.836e+06
    1.6861 3.0616e+06
    1.6985 3.3016e+06
    1.7109 3.5569e+06
    1.7233  3.828e+06
    1.7357 4.1158e+06
    1.7481  4.421e+06
    1.7605 4.7444e+06
    1.7729 5.0868e+06
    1.7853 5.4491e+06
    1.7977 5.8321e+06
    1.8101 6.2367e+06
    1.8225 6.6638e+06
    1.8349 7.1143e+06
    1.8473 7.5893e+06
    1.8597 8.0897e+06
    1.8721 8.6165e+06
    1.8845 9.1707e+06
    1.8969 9.7535e+06
    1.9093 1.0366e+07
    1.9217 1.1009e+07
    1.9341 1.1684e+07
    1.9465 1.2392e+07
    1.9589 1.3134e+07
    1.9713 1.3912e+07
    1.9837 1.4726e+07
    1.9961 1.5578e+07
    2.0085  1.647e+07
    2.0209 1.7402e+07
    2.0333 1.8376e+07
    2.0457 1.9393e+07
    2.0581 2.0455e+07
    2.0705 2.1564e+07
    2.0829  2.272e+07
    2.0953 2.3925e+07
    2.1077  2.518e+07
    2.1201 2.6488e+07
    2.1325  2.785e+07
    2.1449 2.9267e+07
    2.1573 3.0741e+07
    2.1697 3.2273e+07
    2.1821 3.3866e+07
    2.1945 3.5521e+07
    2.2069  3.724e+07
    2.2193 3.9024e+07
    2.2317 4.0876e+07
    2.2441 4.2797e+07
    2.2565 4.4789e+07
    2.2689 4.6853e+07
    2.2813 4.8993e+07
    2.2937 5.1209e+07
    2.3061 5.3504e+07
    2.3185  5.588e+07
    2.3308 5.8338e+07
    2.3432 6.0882e+07
    2.3556 6.3512e+07
     2.368 6.6231e+07
    2.3804  6.904e+07
    2.3928 7.1944e+07
    2.4052 7.4942e+07
    2.4176 7.8038e+07
      2.43 8.1234e+07
    2.4424 8.4532e+07
    2.4548 8.7934e+07
    2.4672 9.1443e+07
    2.4796 9.5061e+07
     2.492 9.8791e+07
    2.5044 1.0263e+08
    2.5168 1.0659e+08
    2.5292 1.1067e+08
    2.5416 1.1487e+08
     2.554 1.1919e+08
    2.5664 1.2364e+08
    2.5788 1.2822e+08
    2.5912 1.3293e+08
    2.6036 1.3777e+08
     2.616 1.4275e+08
    2.6284 1.4787e+08
    2.6408 1.5312e+08
    2.6532 1.5853e+08
    2.6656 1.6408e+08
     2.678 1.6978e+08
    2.6904 1.7563e+08
    2.7028 1.8164e+08
    2.7152 1.8781e+08
    2.7276 1.9414e+08
      2.74 2.0063e+08
    2.7524 2.0729e+08
    2.7648 2.1412e+08
    2.7772 2.2112e+08
    2.7896 2.2829e+08
     2.802 2.3565e+08
    2.8144 2.4319e+08
    2.8268 2.5091e+08
    2.8392 2.5881e+08
    2.8516 2.6691e+08
     2.864 2.7521e+08
    2.8764  2.837e+08
    2.8888 2.9238e+08
    2.9012 3.0128e+08
    2.9136 3.1038e+08
     2.926 3.1968e+08
    2.9384  3.292e+08
    2.9508 3.3894e+08
    2.9632 3.4889e+08
    2.9756 3.5907e+08
     2.988 3.6947e+08
    3.0003  3.801e+08
    3.0127 3.9096e+08
    3.0251 4.0206e+08
    3.0375  4.134e+08
    3.0499 4.2498e+08
    3.0623  4.368e+08
    3.0747 4.4887e+08
    3.0871  4.612e+08
    3.0995 4.7378e+08
    3.1119 4.8662e+08
    3.1243 4.9972e+08
    3.1367 5.1309e+08
    3.1491 5.2672e+08
    3.1615 5.4063e+08
    3.1739 5.5482e+08
    3.1863 5.6929e+08
    3.1987 5.8404e+08
    3.2111 5.9907e+08
    3.2235  6.144e+08
    3.2359 6.3002e+08
    3.2483 6.4594e+08
    3.2607 6.6216e+08
    3.2731 6.7869e+08
    3.2855 6.9552e+08
    3.2979 7.1267e+08
    3.3103 7.3013e+08
    3.3227 7.4791e+08
    3.3351 7.6602e+08
    3.3475 7.8445e+08
    3.3599 8.0321e+08
    3.3723 8.2231e+08
    3.3847 8.4175e+08
    3.3971 8.6153e+08
    3.4095 8.8165e+08
    3.4219 9.0212e+08
    3.4343 9.2295e+08
    3.4467 9.4413e+08
    3.4591 9.6567e+08
    3.4715 9.8758e+08
    3.4839 1.0099e+09
    3.4963 1.0325e+09
    3.5087 1.0555e+09
    3.5211 1.0789e+09
    3.5335 1.1027e+09
    3.5459 1.1269e+09
    3.5583 1.1515e+09
    3.5707 1.1764e+09
    3.5831 1.2018e+09
    3.5955 1.2275e+09
    3.6079 1.2537e+09
    3.6203 1.2803e+09
    3.6327 1.3073e+09
    3.6451 1.3347e+09
    3.6574 1.3625e+09
    3.6698 1.3908e+09
    3.6822 1.4195e+09
    3.6946 1.4486e+09
     3.707 1.4782e+09
    3.7194 1.5082e+09
    3.7318 1.5386e+09
    3.7442 1.5696e+09
    3.7566 1.6009e+09
     3.769 1.6327e+09
    3.7814  1.665e+09
    3.7938 1.6977e+09
    3.8062 1.7309e+09
    3.8186 1.7646e+09
     3.831 1.7988e+09
    3.8434 1.8334e+09
    3.8558 1.8686e+09
    3.8682 1.9042e+09
    3.8806 1.9403e+09
     3.893 1.9769e+09
    3.9054  2.014e+09
    3.9178 2.0516e+09
    3.9302 2.0898e+09
    3.9426 2.1284e+09
     3.955 2.1675e+09
    3.9674 2.2072e+09
    3.9798 2.2474e+09
    3.9922 2.2881e+09
    4.0046 2.3294e+09
     4.017 2.3712e+09
    4.0294 2.4136e+09
    4.0418 2.4564e+09
    4.0542 2.4999e+09
    4.0666 2.5439e+09
     4.079 2.5884e+09
    4.0914 2.6335e+09
    4.1038 2.6792e+09
    4.1162 2.7254e+09
    4.1286 2.7722e+09
     4.141 2.8196e+09
    4.1534 2.8676e+09
    4.1658 2.9162e+09
    4.1782 2.9653e+09
    4.1906  3.015e+09
     4.203 3.0654e+09
    4.2154 3.1163e+09
    4.2278 3.1678e+09
    4.2402   3.22e+09
    4.2526 3.2728e+09
     4.265 3.3261e+09
    4.2774 3.3801e+09
    4.2898 3.4347e+09
    4.3022   3.49e+09
    4.3146 3.5459e+09
    4.3269 3.6024e+09
    4.3393 3.6595e+09
    4.3517 3.7173e+09
    4.3641 3.7758e+09
    4.3765 3.8349e+09
    4.3889 3.8946e+09
    4.4013 3.9551e+09
    4.4137 4.0161e+09
    4.4261 4.0779e+09
    4.4385 4.1403e+09
    4.4509 4.2034e+09
    4.4633 4.2671e+09
    4.4757 4.3316e+09
    4.4881 4.3967e+09
    4.5005 4.4625e+09
    4.5129 4.5291e+09
    4.5253 4.5963e+09
    4.5377 4.6642e+09
    4.5501 4.7328e+09
    4.5625 4.8022e+09
    4.5749 4.8722e+09
    4.5873  4.943e+09
    4.5997 5.0145e+09
    4.6121 5.0867e+09
    4.6245 5.1596e+09
    4.6369 5.2333e+09
    4.6493 5.3077e+09
    4.6617 5.3828e+09
    4.6741 5.4587e+09
    4.6865 5.5353e+09
    4.6989 5.6128e+09
    4.7113 5.6909e+09
    4.7237 5.7698e+09
    4.7361 5.8494e+09
    4.7485 5.9299e+09
    4.7609 6.0111e+09
    4.7733  6.093e+09
    4.7857 6.1758e+09
    4.7981 6.2593e+09
    4.8105 6.3436e+09
    4.8229 6.4287e+09
    4.8353 6.5146e+09
    4.8477 6.6012e+09
    4.8601 6.6887e+09
    4.8725  6.777e+09
    4.8849 6.8661e+09
    4.8973  6.956e+09
    4.9097 7.0467e+09
    4.9221 7.1382e+09
    4.9345 7.2305e+09
    4.9469 7.3237e+09
    4.9593 7.4177e+09
    4.9717 7.5125e+09
     4.984 7.6082e+09
    4.9964 7.7047e+09
    5.0088  7.802e+09
    5.0212 7.9002e+09
    5.0336 7.9992e+09
     5.046 8.0991e+09
    5.0584 8.1998e+09
    5.0708 8.3014e+09
    5.0832 8.4038e+09
    5.0956 8.5071e+09
     5.108 8.6113e+09
    5.1204 8.7164e+09
    5.1328 8.8223e+09
    5.1452 8.9291e+09
    5.1576 9.0368e+09
      5.17 9.1453e+09
    5.1824 9.2548e+09
    5.1948 9.3652e+09
    5.2072 9.4764e+09
    5.2196 9.5885e+09
     5.232 9.7016e+09
    5.2444 9.8155e+09
    5.2568 9.9303e+09
    5.2692 1.0046e+10
    5.2816 1.0163e+10
     5.294  1.028e+10
    5.3064 1.0399e+10
    5.3188 1.0518e+10
    5.3312 1.0639e+10
    5.3436  1.076e+10
     5.356 1.0882e+10
    5.3684 1.1005e+10
    5.3808  1.113e+10
    5.3932 1.1255e+10
    5.4056 1.1381e+10
     5.418 1.1507e+10
    5.4304 1.1635e+10
    5.4428 1.1764e+10
    5.4552 1.1894e+10
    5.4676 1.2025e+10
      5.48 1.2157e+10
    5.4924 1.2289e+10
    5.5048 1.2423e+10
    5.5172 1.2558e+10
    5.5296 1.2693e+10
     5.542  1.283e+10
    5.5544 1.2967e+10
    5.5668 1.3106e+10
    5.5792 1.3246e+10
    5.5916 1.3386e+10
     5.604 1.3528e+10
    5.6164  1.367e+10
    5.6288 1.3814e+10
    5.6412 1.3958e+10
    5.6535 1.4104e+10
    5.6659  1.425e+10
    5.6783 1.4398e+10
    5.6907 1.4546e+10
    5.7031 1.4696e+10
    5.7155 1.4847e+10
    5.7279 1.4998e+10
    5.7403 1.5151e+10
    5.7527 1.5305e+10
    5.7651 1.5459e+10
    5.7775 1.5615e+10
    5.7899 1.5772e+10
    5.8023  1.593e+10
    5.8147 1.6088e+10
    5.8271 1.6248e+10
    5.8395 1.6409e+10
    5.8519 1.6571e+10
    5.8643 1.6734e+10
    5.8767 1.6898e+10
    5.8891 1.7064e+10
    5.9015  1.723e+10
    5.9139 1.7397e+10
    5.9263 1.7565e+10
    5.9387 1.7735e+10
    5.9511 1.7905e+10
    5.9635 1.8077e+10
    5.9759 1.8249e+10
    5.9883 1.8423e+10
    6.0007 1.8598e+10
    6.0131 1.8774e+10
    6.0255 1.8951e+10
    6.0379 1.9129e+10
    6.0503 1.9308e+10
    6.0627 1.9488e+10
    6.0751 1.9669e+10
    6.0875 1.9852e+10
    6.0999 2.0035e+10
    6.1123  2.022e+10
    6.1247 2.0406e+10
    6.1371 2.0592e+10
    6.1495  2.078e+10
    6.1619 2.0969e+10
    6.1743 2.1159e+10
    6.1867 2.1351e+10
    6.1991 2.1543e+10
    6.2115 2.1736e+10
    6.2239 2.1931e+10
    6.2363 2.2127e+10
    6.2487 2.2324e+10
    6.2611 2.2522e+10
    6.2735 2.2721e+10
    6.2859 2.2921e+10
    6.2983 2.3122e+10
    6.3107 2.3325e+10
     6.323 2.3529e+10
    6.3354 2.3733e+10
    6.3478 2.3939e+10
    6.3602 2.4146e+10
    6.3726 2.4354e+10
     6.385 2.4564e+10
    6.3974 2.4774e+10
    6.4098 2.4986e+10
    6.4222 2.5199e+10
    6.4346 2.5413e+10
     6.447 2.5628e+10
    6.4594 2.5844e+10
    6.4718 2.6062e+10
    6.4842  2.628e+10
    6.4966   2.65e+10
     6.509 2.6721e+10
    6.5214 2.6943e+10
    6.5338 2.7166e+10
    6.5462 2.7391e+10
    6.5586 2.7616e+10
     6.571 2.7843e+10
    6.5834 2.8071e+10
    6.5958   2.83e+10
    6.6082 2.8531e+10
    6.6206 2.8762e+10
     6.633 2.8995e+10
    6.6454 2.9229e+10
    6.6578 2.9464e+10
    6.6702   2.97e+10
    6.6826 2.9938e+10
     6.695 3.0177e+10
    6.7074 3.0416e+10
    6.7198 3.0658e+10
    6.7322   3.09e+10
    6.7446 3.1143e+10
     6.757 3.1388e+10
    6.7694 3.1634e+10
    6.7818 3.1881e+10
    6.7942 3.2129e+10
    6.8066 3.2379e+10
     6.819 3.2629e+10
    6.8314 3.2881e+10
    6.8438 3.3134e+10
    6.8562 3.3389e+10
    6.8686 3.3644e+10
     6.881 3.3901e+10
    6.8934 3.4159e+10
    6.9058 3.4418e+10
    6.9182 3.4679e+10
    6.9306 3.4941e+10
     6.943 3.5203e+10
    6.9554 3.5467e+10
    6.9678 3.5733e+10
    6.9801 3.5999e+10
    6.9925 3.6267e+10
    7.0049 3.6536e+10
    7.0173 3.6807e+10
    7.0297 3.7078e+10
    7.0421 3.7351e+10
    7.0545 3.7625e+10
    7.0669   3.79e+10
    7.0793 3.8177e+10
    7.0917 3.8454e+10
    7.1041 3.8733e+10
    7.1165 3.9013e+10
    7.1289 3.9295e+10
    7.1413 3.9577e+10
    7.1537 3.9861e+10
    7.1661 4.0147e+10
    7.1785 4.0433e+10
    7.1909 4.0721e+10
    7.2033  4.101e+10
    7.2157   4.13e+10
    7.2281 4.1591e+10
    7.2405 4.1884e+10
    7.2529 4.2178e+10
    7.2653 4.2473e+10
    7.2777  4.277e+10
    7.2901 4.3067e+10
    7.3025 4.3366e+10
    7.3149 4.3667e+10
    7.3273 4.3968e+10
    7.3397 4.4271e+10
    7.3521 4.4575e+10
    7.3645  4.488e+10
    7.3769 4.5187e+10
    7.3893 4.5494e+10
    7.4017 4.5804e+10
    7.4141 4.6114e+10
    7.4265 4.6426e+10
    7.4389 4.6738e+10
    7.4513 4.7052e+10
    7.4637 4.7368e+10
    7.4761 4.7685e+10
    7.4885 4.8003e+10
    7.5009 4.8322e+10
    7.5133 4.8642e+10
    7.5257 4.8964e+10
    7.5381 4.9287e+10
    7.5505 4.9612e+10
    7.5629 4.9938e+10
    7.5753 5.0264e+10
    7.5877 5.0593e+10
    7.6001 5.0922e+10
    7.6125 5.1253e+10
    7.6249 5.1585e+10
    7.6373 5.1918e+10
    7.6496 5.2253e+10
     7.662 5.2589e+10
    7.6744 5.2926e+10
    7.6868 5.3265e+10
    7.6992 5.3605e+10
    7.7116 5.3946e+10
     7.724 5.4288e+10
    7.7364 5.4632e+10
    7.7488 5.4977e+10
    7.7612 5.5323e+10
    7.7736 5.5671e+10
     7.786 5.6019e+10
    7.7984 5.6369e+10
    7.8108 5.6721e+10
    7.8232 5.7073e+10
    7.8356 5.7427e+10
     7.848 5.7782e+10
    7.8604 5.8139e+10
    7.8728 5.8497e+10
    7.8852 5.8856e+10
    7.8976 5.9217e+10
      7.91 5.9579e+10
    7.9224 5.9942e+10
    7.9348 6.0306e+10
    7.9472 6.0672e+10
    7.9596 6.1039e+10
     7.972 6.1407e+10
    7.9844 6.1776e+10
    7.9968 6.2147e+10
    8.0092 6.2519e+10
    8.0216 6.2893e+10
     8.034 6.3268e+10
    8.0464 6.3643e+10
    8.0588 6.4021e+10
    8.0712   6.44e+10
    8.0836  6.478e+10
     8.096 6.5161e+10
    8.1084 6.5544e+10
    8.1208 6.5927e+10
    8.1332 6.6312e+10
    8.1456 6.6699e+10
     8.158 6.7087e+10
    8.1704 6.7476e+10
    8.1828 6.7867e+10
    8.1952 6.8258e+10
    8.2076 6.8651e+10
      8.22 6.9045e+10
    8.2324 6.9441e+10
    8.2448 6.9838e+10
    8.2572 7.0236e+10
    8.2696 7.0636e+10
     8.282 7.1037e+10
    8.2944 7.1439e+10
    8.3067 7.1842e+10
    8.3191 7.2247e+10
    8.3315 7.2653e+10
    8.3439  7.306e+10
    8.3563 7.3469e+10
    8.3687 7.3879e+10
    8.3811  7.429e+10
    8.3935 7.4703e+10
    8.4059 7.5117e+10
    8.4183 7.5532e+10
    8.4307 7.5949e+10
    8.4431 7.6367e+10
    8.4555 7.6786e+10
    8.4679 7.7206e+10
    8.4803 7.7628e+10
    8.4927 7.8051e+10
    8.5051 7.8475e+10
    8.5175 7.8901e+10
    8.5299 7.9328e+10
    8.5423 7.9756e+10
    8.5547 8.0186e+10
    8.5671 8.0617e+10
    8.5795  8.105e+10
    8.5919 8.1483e+10
    8.6043 8.1918e+10
    8.6167 8.2354e+10
    8.6291 8.2791e+10
    8.6415  8.323e+10
    8.6539  8.367e+10
    8.6663 8.4111e+10
    8.6787 8.4554e+10
    8.6911 8.4998e+10
    8.7035 8.5444e+10
    8.7159  8.589e+10
    8.7283 8.6338e+10
    8.7407 8.6788e+10
    8.7531 8.7238e+10
    8.7655  8.769e+10
    8.7779 8.8143e+10
    8.7903 8.8597e+10
    8.8027 8.9053e+10
    8.8151 8.9511e+10
    8.8275 8.9969e+10
    8.8399 9.0428e+10
    8.8523  9.089e+10
    8.8647 9.1352e+10
    8.8771 9.1815e+10
    8.8895  9.228e+10
    8.9019 9.2746e+10
    8.9143 9.3214e+10
    8.9267 9.3683e+10
    8.9391 9.4153e+10
    8.9515 9.4624e+10
    8.9639 9.5097e+10
    8.9762 9.5571e+10
    8.9886 9.6046e+10
     9.001 9.6523e+10
    9.0134 9.7001e+10
    9.0258  9.748e+10
    9.0382 9.7961e+10
    9.0506 9.8443e+10
     9.063 9.8925e+10
    9.0754  9.941e+10
    9.0878 9.9896e+10
    9.1002 1.0038e+11
    9.1126 1.0087e+11
     9.125 1.0136e+11
    9.1374 1.0185e+11
    9.1498 1.0234e+11
    9.1622 1.0284e+11
    9.1746 1.0333e+11
     9.187 1.0383e+11
    9.1994 1.0433e+11
    9.2118 1.0482e+11
    9.2242 1.0532e+11
    9.2366 1.0583e+11
     9.249 1.0633e+11
    9.2614 1.0683e+11
    9.2738 1.0734e+11
    9.2862 1.0784e+11
    9.2986 1.0835e+11
     9.311 1.0886e+11
    9.3234 1.0937e+11
    9.3358 1.0988e+11
    9.3482  1.104e+11
    9.3606 1.1091e+11
     9.373 1.1142e+11
    9.3854 1.1194e+11
    9.3978 1.1246e+11
    9.4102 1.1298e+11
    9.4226  1.135e+11
     9.435 1.1402e+11
    9.4474 1.1454e+11
    9.4598 1.1507e+11
    9.4722  1.156e+11
    9.4846 1.1612e+11
     9.497 1.1665e+11
    9.5094 1.1718e+11
    9.5218 1.1771e+11
    9.5342 1.1824e+11
    9.5466 1.1878e+11
     9.559 1.1931e+11
    9.5714 1.1985e+11
    9.5838 1.2038e+11
    9.5962 1.2092e+11
    9.6086 1.2146e+11
     9.621   1.22e+11
    9.6333 1.2255e+11
    9.6457 1.2309e+11
    9.6581 1.2363e+11
    9.6705 1.2418e+11
    9.6829 1.2473e+11
    9.6953 1.2528e+11
    9.7077 1.2583e+11
    9.7201 1.2638e+11
    9.7325 1.2693e+11
    9.7449 1.2749e+11
    9.7573 1.2804e+11
    9.7697  1.286e+11
    9.7821 1.2915e+11
    9.7945 1.2971e+11
    9.8069 1.3027e+11
    9.8193 1.3084e+11
    9.8317  1.314e+11
    9.8441 1.3196e+11
    9.8565 1.3253e+11
    9.8689 1.3309e+11
    9.8813 1.3366e+11
    9.8937 1.3423e+11
    9.9061  1.348e+11
    9.9185 1.3537e+11
    9.9309 1.3595e+11
    9.9433 1.3652e+11
    9.9557 1.3709e+11
    9.9681 1.3767e+11
    9.9805 1.3825e+11
    9.9929 1.3883e+11
    10.005 1.3941e+11
    10.018 1.3999e+11
     10.03 1.4057e+11
    10.042 1.4116e+11
    10.055 1.4174e+11
    10.067 1.4233e+11
     10.08 1.4292e+11
    10.092 1.4351e+11
    10.104  1.441e+11
    10.117 1.4469e+11
    10.129 1.4528e+11
    10.142 1.4587e+11
    10.154 1.4647e+11
    10.166 1.4707e+11
    10.179 1.4766e+11
    10.191 1.4826e+11
    10.204 1.4886e+11
    10.216 1.4946e+11
    10.228 1.5007e+11
    10.241 1.5067e+11
    10.253 1.5128e+11
    10.266 1.5188e+11
    10.278 1.5249e+11
     10.29  1.531e+11
    10.303 1.5371e+11
    10.315 1.5432e+11
    10.328 1.5493e+11
     10.34 1.5555e+11
    10.352 1.5616e+11
    10.365 1.5678e+11
    10.377  1.574e+11
     10.39 1.5801e+11
    10.402 1.5863e+11
    10.414 1.5926e+11
    10.427 1.5988e+11
    10.439  1.605e+11
    10.452 1.6113e+11
    10.464 1.6175e+11
    10.476 1.6238e+11
    10.489 1.6301e+11
    10.501 1.6364e+11
    10.514 1.6427e+11
    10.526  1.649e+11
    10.538 1.6553e+11
    10.551 1.6617e+11
    10.563 1.6681e+11
    10.576 1.6744e+11
    10.588 1.6808e+11
      10.6 1.6872e+11
    10.613 1.6936e+11
    10.625    1.7e+11
    10.638 1.7065e+11
     10.65 1.7129e+11
    10.662 1.7193e+11
    10.675 1.7258e+11
    10.687 1.7323e+11
      10.7 1.7388e+11
    10.712 1.7453e+11
    10.724 1.7518e+11
    10.737 1.7583e+11
    10.749 1.7649e+11
    10.762 1.7714e+11
    10.774  1.778e+11
    10.786 1.7845e+11
    10.799 1.7911e+11
    10.811 1.7977e+11
    10.824 1.8043e+11
    10.836  1.811e+11
    10.848 1.8176e+11
    10.861 1.8242e+11
    10.873 1.8309e+11
    10.886 1.8376e+11
    10.898 1.8442e+11
     10.91 1.8509e+11
    10.923 1.8576e+11
    10.935 1.8644e+11
    10.948 1.8711e+11
     10.96 1.8778e+11
    10.972 1.8846e+11
    10.985 1.8913e+11
    10.997 1.8981e+11
     11.01 1.9049e+11
    11.022 1.9117e+11
    11.034 1.9185e+11
    11.047 1.9253e+11
    11.059 1.9322e+11
    11.072  1.939e+11
    11.084 1.9459e+11
    11.096 1.9527e+11
    11.109 1.9596e+11
    11.121 1.9665e+11
    11.134 1.9734e+11
    11.146 1.9803e+11
    11.158 1.9872e+11
    11.171 1.9942e+11
    11.183 2.0011e+11
    11.196 2.0081e+11
    11.208 2.0151e+11
     11.22  2.022e+11
    11.233  2.029e+11
    11.245  2.036e+11
    11.258 2.0431e+11
     11.27 2.0501e+11
    11.282 2.0571e+11
    11.295 2.0642e+11
    11.307 2.0712e+11
    11.319 2.0783e+11
    11.332 2.0854e+11
    11.344 2.0925e+11
    11.357 2.0996e+11
    11.369 2.1067e+11
    11.381 2.1139e+11
    11.394  2.121e+11
    11.406 2.1282e+11
    11.419 2.1353e+11
    11.431 2.1425e+11
    11.443 2.1497e+11
    11.456 2.1569e+11
    11.468 2.1641e+11
    11.481 2.1713e+11
    11.493 2.1786e+11
    11.505 2.1858e+11
    11.518 2.1931e+11
     11.53 2.2003e+11
    11.543 2.2076e+11
    11.555 2.2149e+11
    11.567 2.2222e+11
     11.58 2.2295e+11
    11.592 2.2368e+11
    11.605 2.2442e+11
    11.617 2.2515e+11
    11.629 2.2589e+11
    11.642 2.2662e+11
    11.654 2.2736e+11
    11.667  2.281e+11
    11.679 2.2884e+11
    11.691 2.2958e+11
    11.704 2.3032e+11
    11.716 2.3107e+11
    11.729 2.3181e+11
    11.741 2.3256e+11
    11.753  2.333e+11
    11.766 2.3405e+11
    11.778  2.348e+11
    11.791 2.3555e+11
    11.803  2.363e+11
    11.815 2.3705e+11
    11.828 2.3781e+11
     11.84 2.3856e+11
    11.853 2.3932e+11
    11.865 2.4007e+11
    11.877 2.4083e+11
     11.89 2.4159e+11
    11.902 2.4235e+11
    11.915 2.4311e+11
    11.927 2.4387e+11
    11.939 2.4463e+11
    11.952  2.454e+11
    11.964 2.4616e+11
    11.977 2.4693e+11
    11.989  2.477e+11
    12.001 2.4846e+11
    12.014 2.4923e+11
    12.026    2.5e+11
    12.039 2.5078e+11
    12.051 2.5155e+11
    12.063 2.5232e+11
    12.076  2.531e+11
    12.088 2.5387e+11
    12.101 2.5465e+11
    12.113 2.5543e+11
    12.125 2.5621e+11
    12.138 2.5699e+11
     12.15 2.5777e+11
    12.163 2.5855e+11
    12.175 2.5933e+11
    12.187 2.6012e+11
      12.2  2.609e+11
    12.212 2.6169e+11
    12.225 2.6248e+11
    12.237 2.6326e+11
    12.249 2.6405e+11
    12.262 2.6485e+11
    12.274 2.6564e+11
    12.287 2.6643e+11
    12.299 2.6722e+11
    12.311 2.6802e+11
    12.324 2.6881e+11
    12.336 2.6961e+11
    12.349 2.7041e+11
    12.361 2.7121e+11
    12.373 2.7201e+11
    12.386 2.7281e+11
    12.398 2.7361e+11
    12.411 2.7441e+11
    12.423 2.7521e+11
    12.435 2.7602e+11
    12.448 2.7683e+11
     12.46 2.7763e+11
    12.473 2.7844e+11
    12.485 2.7925e+11
    12.497 2.8006e+11
     12.51 2.8087e+11
    12.522 2.8168e+11
    12.535  2.825e+11
    12.547 2.8331e+11
    12.559 2.8412e+11
    12.572 2.8494e+11
    12.584 2.8576e+11
    12.597 2.8658e+11
    12.609  2.874e+11
    12.621 2.8821e+11
    12.634 2.8904e+11
    12.646 2.8986e+11
    12.658 2.9068e+11
    12.671 2.9151e+11
    12.683 2.9233e+11
    12.696 2.9316e+11
    12.708 2.9398e+11
     12.72 2.9481e+11
    12.733 2.9564e+11
    12.745 2.9647e+11
    12.758  2.973e+11
     12.77 2.9813e+11
    12.782 2.9897e+11
    12.795  2.998e+11
    12.807 3.0064e+11
     12.82 3.0147e+11
    12.832 3.0231e+11
    12.844 3.0315e+11
    12.857 3.0399e+11
    12.869 3.0482e+11
    12.882 3.0567e+11
    12.894 3.0651e+11
    12.906 3.0735e+11
    12.919 3.0819e+11
    12.931 3.0904e+11
    12.944 3.0989e+11
    12.956 3.1073e+11
    12.968 3.1158e+11
    12.981 3.1243e+11
    12.993 3.1328e+11
    13.006 3.1413e+11
    13.018 3.1498e+11
     13.03 3.1583e+11
    13.043 3.1668e+11
    13.055 3.1754e+11
    13.068 3.1839e+11
     13.08 3.1925e+11
    13.092 3.2011e+11
    13.105 3.2097e+11
    13.117 3.2182e+11
     13.13 3.2268e+11
    13.142 3.2355e+11
    13.154 3.2441e+11
    13.167 3.2527e+11
    13.179 3.2613e+11
    13.192   3.27e+11
    13.204 3.2786e+11
    13.216 3.2873e+11
    13.229  3.296e+11
    13.241 3.3047e+11
    13.254 3.3134e+11
    13.266 3.3221e+11
    13.278 3.3308e+11
    13.291 3.3395e+11
    13.303 3.3482e+11
    13.316  3.357e+11
    13.328 3.3657e+11
     13.34 3.3745e+11
    13.353 3.3832e+11
    13.365  3.392e+11
    13.378 3.4008e+11
     13.39 3.4096e+11
    13.402 3.4184e+11
    13.415 3.4272e+11
    13.427  3.436e+11
     13.44 3.4449e+11
    13.452 3.4537e+11
    13.464 3.4626e+11
    13.477 3.4714e+11
    13.489 3.4803e+11
    13.502 3.4892e+11
    13.514 3.4981e+11
    13.526  3.507e+11
    13.539 3.5159e+11
    13.551 3.5248e+11
    13.564 3.5337e+11
    13.576 3.5426e+11
    13.588 3.5515e+11
    13.601 3.5605e+11
    13.613 3.5695e+11
    13.626 3.5784e+11
    13.638 3.5874e+11
     13.65 3.5964e+11
    13.663 3.6054e+11
    13.675 3.6144e+11
    13.688 3.6234e+11
      13.7 3.6324e+11
    13.712 3.6414e+11
    13.725 3.6505e+11
    13.737 3.6595e+11
     13.75 3.6686e+11
    13.762 3.6776e+11
    13.774 3.6867e+11
    13.787 3.6958e+11
    13.799 3.7049e+11
    13.812  3.714e+11
    13.824 3.7231e+11
    13.836 3.7322e+11
    13.849 3.7413e+11
    13.861 3.7504e+11
    13.874 3.7596e+11
    13.886 3.7687e+11
    13.898 3.7779e+11
    13.911 3.7871e+11
    13.923 3.7962e+11
    13.936 3.8054e+11
    13.948 3.8146e+11
     13.96 3.8238e+11
    13.973  3.833e+11
    13.985 3.8422e+11
    13.997 3.8515e+11
     14.01 3.8607e+11
    14.022 3.8699e+11
    14.035 3.8792e+11
    14.047 3.8885e+11
    14.059 3.8977e+11
    14.072  3.907e+11
    14.084 3.9163e+11
    14.097 3.9256e+11
    14.109 3.9349e+11
    14.121 3.9442e+11
    14.134 3.9535e+11
    14.146 3.9628e+11
    14.159 3.9722e+11
    14.171 3.9815e+11
    14.183 3.9909e+11
    14.196 4.0002e+11
    14.208 4.0096e+11
    14.221  4.019e+11
    14.233 4.0284e+11
    14.245 4.0377e+11
    14.258 4.0471e+11
     14.27 4.0566e+11
    14.283  4.066e+11
    14.295 4.0754e+11
    14.307 4.0848e+11
     14.32 4.0943e+11
    14.332 4.1037e+11
    14.345 4.1132e+11
    14.357 4.1226e+11
    14.369 4.1321e+11
    14.382 4.1416e+11
    14.394 4.1511e+11
    14.407 4.1606e+11
    14.419 4.1701e+11
    14.431 4.1796e+11
    14.444 4.1891e+11
    14.456 4.1987e+11
    14.469 4.2082e+11
    14.481 4.2177e+11
    14.493 4.2273e+11
    14.506 4.2368e+11
    14.518 4.2464e+11
    14.531  4.256e+11
    14.543 4.2656e+11
    14.555 4.2752e+11
    14.568 4.2848e+11
     14.58 4.2944e+11
    14.593  4.304e+11
    14.605 4.3136e+11
    14.617 4.3233e+11
     14.63 4.3329e+11
    14.642 4.3425e+11
    14.655 4.3522e+11
    14.667 4.3618e+11
    14.679 4.3715e+11
    14.692 4.3812e+11
    14.704 4.3909e+11
    14.717 4.4006e+11
    14.729 4.4103e+11
    14.741   4.42e+11
    14.754 4.4297e+11
    14.766 4.4394e+11
    14.779 4.4491e+11
    14.791 4.4589e+11
    14.803 4.4686e+11
    14.816 4.4784e+11
    14.828 4.4881e+11
    14.841 4.4979e+11
    14.853 4.5077e+11
    14.865 4.5175e+11
    14.878 4.5273e+11
     14.89 4.5371e+11
    14.903 4.5469e+11
    14.915 4.5567e+11
    14.927 4.5665e+11
     14.94 4.5763e+11
    14.952 4.5862e+11
    14.965  4.596e+11
    14.977 4.6059e+11
    14.989 4.6157e+11
    15.002 4.6256e+11
    15.014 4.6355e+11
    15.027 4.6453e+11
    15.039 4.6552e+11
    15.051 4.6651e+11
    15.064  4.675e+11
    15.076  4.685e+11
    15.089 4.6948e+11
    15.101 4.7048e+11
    15.113 4.7147e+11
    15.126 4.7247e+11
    15.138 4.7346e+11
    15.151 4.7445e+11
    15.163 4.7545e+11
    15.175 4.7645e+11
    15.188 4.7745e+11
      15.2 4.7844e+11
    15.213 4.7944e+11
    15.225 4.8044e+11
    15.237 4.8144e+11
     15.25 4.8244e+11
    15.262 4.8344e+11
    15.275 4.8445e+11
    15.287 4.8545e+11
    15.299 4.8645e+11
    15.312 4.8746e+11
    15.324 4.8846e+11
    15.336 4.8947e+11
    15.349 4.9047e+11
    15.361 4.9148e+11
    15.374 4.9249e+11
    15.386  4.935e+11
    15.398 4.9451e+11
    15.411 4.9552e+11
    15.423 4.9653e+11
    15.436 4.9754e+11
    15.448 4.9855e+11
     15.46 4.9956e+11
    15.473 5.0058e+11
    15.485 5.0159e+11
    15.498 5.0261e+11
     15.51 5.0362e+11
    15.522 5.0464e+11
    15.535 5.0565e+11
    15.547 5.0667e+11
     15.56 5.0769e+11
    15.572 5.0871e+11
    15.584 5.0973e+11
    15.597 5.1075e+11
    15.609 5.1177e+11
    15.622 5.1279e+11
    15.634 5.1381e+11
    15.646 5.1484e+11
    15.659 5.1586e+11
    15.671 5.1688e+11
    15.684 5.1791e+11
    15.696 5.1893e+11
    15.708 5.1996e+11
    15.721 5.2099e+11
    15.733 5.2201e+11
    15.746 5.2304e+11
    15.758 5.2407e+11
     15.77  5.251e+11
    15.783 5.2613e+11
    15.795 5.2716e+11
    15.808  5.282e+11
     15.82 5.2923e+11
    15.832 5.3026e+11
    15.845 5.3129e+11
    15.857 5.3232e+11
     15.87 5.3336e+11
    15.882 5.3439e+11
    15.894 5.3543e+11
    15.907 5.3647e+11
    15.919  5.375e+11
    15.932 5.3854e+11
    15.944 5.3958e+11
    15.956 5.4062e+11
    15.969 5.4166e+11
    15.981  5.427e+11
    15.994 5.4374e+11
    16.006 5.4478e+11
    16.018 5.4582e+11
    16.031 5.4686e+11
    16.043 5.4791e+11
    16.056 5.4895e+11
    16.068    5.5e+11
     16.08 5.5104e+11
    16.093 5.5209e+11
    16.105 5.5314e+11
    16.118 5.5418e+11
     16.13 5.5523e+11
    16.142 5.5628e+11
    16.155 5.5733e+11
    16.167 5.5838e+11
     16.18 5.5943e+11
    16.192 5.6048e+11
    16.204 5.6153e+11
    16.217 5.6258e+11
    16.229 5.6364e+11
    16.242 5.6469e+11
    16.254 5.6574e+11
    16.266  5.668e+11
    16.279 5.6785e+11
    16.291 5.6891e+11
    16.304 5.6996e+11
    16.316 5.7102e+11
    16.328 5.7208e+11
    16.341 5.7314e+11
    16.353 5.7419e+11
    16.366 5.7526e+11
    16.378 5.7631e+11
     16.39 5.7738e+11
    16.403 5.7843e+11
    16.415  5.795e+11
    16.428 5.8056e+11
     16.44 5.8162e+11
    16.452 5.8269e+11
    16.465 5.8375e+11
    16.477 5.8481e+11
     16.49 5.8588e+11
    16.502 5.8694e+11
    16.514 5.8801e+11
    16.527 5.8908e+11
    16.539 5.9014e+11
    16.552 5.9121e+11
    16.564 5.9228e+11
    16.576 5.9335e+11
    16.589 5.9442e+11
    16.601 5.9549e+11
    16.613 5.9656e+11
    16.626 5.9763e+11
    16.638  5.987e+11
    16.651 5.9978e+11
    16.663 6.0085e+11
    16.675 6.0192e+11
    16.688   6.03e+11
      16.7 6.0407e+11
    16.713 6.0515e+11
    16.725 6.0622e+11
    16.737  6.073e+11
     16.75 6.0837e+11
    16.762 6.0945e+11
    16.775 6.1053e+11
    16.787 6.1161e+11
    16.799 6.1269e+11
    16.812 6.1377e+11
    16.824 6.1485e+11
    16.837 6.1593e+11
    16.849 6.1701e+11
    16.861 6.1809e+11
    16.874 6.1917e+11
    16.886 6.2026e+11
    16.899 6.2134e+11
    16.911 6.2242e+11
    16.923 6.2351e+11
    16.936 6.2459e+11
    16.948 6.2568e+11
    16.961 6.2677e+11
    16.973 6.2785e+11
    16.985 6.2894e+11
    16.998 6.3003e+11
     17.01 6.3112e+11
    17.023 6.3221e+11
    17.035  6.333e+11
    17.047 6.3438e+11
     17.06 6.3547e+11
    17.072 6.3657e+11
    17.085 6.3765e+11
    17.097 6.3875e+11
    17.109 6.3984e+11
    17.122 6.4093e+11
    17.134 6.4203e+11
    17.147 6.4312e+11
    17.159 6.4421e+11
    17.171 6.4531e+11
    17.184 6.4641e+11
    17.196  6.475e+11
    17.209  6.486e+11
    17.221  6.497e+11
    17.233 6.5079e+11
    17.246 6.5189e+11
    17.258 6.5299e+11
    17.271 6.5409e+11
    17.283 6.5519e+11
    17.295 6.5629e+11
    17.308 6.5739e+11
     17.32 6.5849e+11
    17.333 6.5959e+11
    17.345 6.6069e+11
    17.357  6.618e+11
     17.37  6.629e+11
    17.382   6.64e+11
    17.395  6.651e+11
    17.407 6.6621e+11
    17.419 6.6731e+11
    17.432 6.6842e+11
    17.444 6.6953e+11
    17.457 6.7063e+11
    17.469 6.7174e+11
    17.481 6.7285e+11
    17.494 6.7396e+11
    17.506 6.7506e+11
    17.519 6.7617e+11
    17.531 6.7728e+11
    17.543 6.7839e+11
    17.556  6.795e+11
    17.568 6.8061e+11
    17.581 6.8172e+11
    17.593 6.8283e+11
    17.605 6.8395e+11
    17.618 6.8506e+11
     17.63 6.8617e+11
    17.643 6.8729e+11
    17.655  6.884e+11
    17.667 6.8952e+11
     17.68 6.9063e+11
    17.692 6.9175e+11
    17.705 6.9286e+11
    17.717 6.9398e+11
    17.729  6.951e+11
    17.742 6.9621e+11
    17.754 6.9733e+11
    17.767 6.9845e+11
    17.779 6.9957e+11
    17.791 7.0068e+11
    17.804 7.0181e+11
    17.816 7.0293e+11
    17.829 7.0405e+11
    17.841 7.0517e+11
    17.853 7.0629e+11
    17.866 7.0741e+11
    17.878 7.0853e+11
    17.891 7.0966e+11
    17.903 7.1078e+11
    17.915  7.119e+11
    17.928 7.1303e+11
     17.94 7.1415e+11
    17.952 7.1528e+11
    17.965  7.164e+11
    17.977 7.1753e+11
     17.99 7.1865e+11
    18.002 7.1978e+11
    18.014 7.2091e+11
    18.027 7.2203e+11
    18.039 7.2316e+11
    18.052 7.2429e+11
    18.064 7.2542e+11
    18.076 7.2655e+11
    18.089 7.2768e+11
    18.101 7.2881e+11
    18.114 7.2994e+11
    18.126 7.3107e+11
    18.138  7.322e+11
    18.151 7.3333e+11
    18.163 7.3447e+11
    18.176  7.356e+11
    18.188 7.3673e+11
      18.2 7.3787e+11
    18.213   7.39e+11
    18.225 7.4014e+11
    18.238 7.4127e+11
     18.25 7.4241e+11
    18.262 7.4354e+11
    18.275 7.4468e+11
    18.287 7.4581e+11
      18.3 7.4695e+11
    18.312 7.4809e+11
    18.324 7.4923e+11
    18.337 7.5036e+11
    18.349  7.515e+11
    18.362 7.5264e+11
    18.374 7.5378e+11
    18.386 7.5492e+11
    18.399 7.5606e+11
    18.411  7.572e+11
    18.424 7.5834e+11
    18.436 7.5948e+11
    18.448 7.6063e+11
    18.461 7.6177e+11
    18.473 7.6291e+11
    18.486 7.6406e+11
    18.498  7.652e+11
     18.51 7.6634e+11
    18.523 7.6748e+11
    18.535 7.6863e+11
    18.548 7.6978e+11
     18.56 7.7092e+11
    18.572 7.7206e+11
    18.585 7.7321e+11
    18.597 7.7436e+11
     18.61 7.7551e+11
    18.622 7.7665e+11
    18.634  7.778e+11
    18.647 7.7895e+11
    18.659 7.8009e+11
    18.672 7.8125e+11
    18.684 7.8239e+11
    18.696 7.8354e+11
    18.709 7.8469e+11
    18.721 7.8584e+11
    18.734   7.87e+11
    18.746 7.8815e+11
    18.758  7.893e+11
    18.771 7.9045e+11
    18.783  7.916e+11
    18.796 7.9275e+11
    18.808 7.9391e+11
     18.82 7.9506e+11
    18.833 7.9621e+11
    18.845 7.9737e+11
    18.858 7.9853e+11
     18.87 7.9968e+11
    18.882 8.0083e+11
    18.895 8.0198e+11
    18.907 8.0314e+11
     18.92  8.043e+11
    18.932 8.0545e+11
    18.944 8.0661e+11
    18.957 8.0777e+11
    18.969 8.0893e+11
    18.982 8.1009e+11
    18.994 8.1125e+11
    19.006  8.124e+11
    19.019 8.1356e+11
    19.031 8.1472e+11
    19.044 8.1588e+11
    19.056 8.1704e+11
    19.068  8.182e+11
    19.081 8.1936e+11
    19.093 8.2052e+11
    19.106 8.2169e+11
    19.118 8.2285e+11
     19.13 8.2401e+11
    19.143 8.2517e+11
    19.155 8.2633e+11
    19.168  8.275e+11
     19.18 8.2866e+11
    19.192 8.2983e+11
    19.205 8.3099e+11
    19.217 8.3216e+11
     19.23 8.3332e+11
    19.242 8.3449e+11
    19.254 8.3565e+11
    19.267 8.3682e+11
    19.279 8.3798e+11
    19.291 8.3915e+11
    19.304 8.4032e+11
    19.316 8.4149e+11
    19.329 8.4265e+11
    19.341 8.4382e+11
    19.353 8.4499e+11
    19.366 8.4616e+11
    19.378 8.4732e+11
    19.391 8.4849e+11
    19.403 8.4966e+11
    19.415 8.5083e+11
    19.428 8.5201e+11
     19.44 8.5317e+11
    19.453 8.5434e+11
    19.465 8.5552e+11
    19.477 8.5669e+11
     19.49 8.5786e+11
    19.502 8.5903e+11
    19.515  8.602e+11
    19.527 8.6138e+11
    19.539 8.6255e+11
    19.552 8.6372e+11
    19.564  8.649e+11
    19.577 8.6607e+11
    19.589 8.6724e+11
    19.601 8.6842e+11
    19.614 8.6959e+11
    19.626 8.7077e+11
    19.639 8.7194e+11
    19.651 8.7312e+11
    19.663  8.743e+11
    19.676 8.7548e+11
    19.688 8.7665e+11
    19.701 8.7783e+11
    19.713   8.79e+11
    19.725 8.8018e+11
    19.738 8.8136e+11
     19.75 8.8254e+11
    19.763 8.8372e+11
    19.775  8.849e+11
    19.787 8.8608e+11
      19.8 8.8726e+11
    19.812 8.8844e+11
    19.825 8.8961e+11
    19.837 8.9079e+11
    19.849 8.9198e+11
    19.862 8.9316e+11
    19.874 8.9434e+11
    19.887 8.9552e+11
    19.899  8.967e+11
    19.911 8.9789e+11
    19.924 8.9906e+11
    19.936 9.0025e+11
    19.949 9.0143e+11
    19.961 9.0261e+11
    19.973  9.038e+11
    19.986 9.0498e+11
    19.998 9.0616e+11
    20.011 9.0735e+11
    20.023 9.0854e+11
    20.035 9.0972e+11
    20.048 9.1091e+11
     20.06 9.1209e+11
    20.073 9.1327e+11
    20.085 9.1446e+11
    20.097 9.1565e+11
     20.11 9.1683e+11
    20.122 9.1802e+11
    20.135  9.192e+11
    20.147 9.2039e+11
    20.159 9.2158e+11
    20.172 9.2277e+11
    20.184 9.2396e+11
    20.197 9.2515e+11
    20.209 9.2634e+11
    20.221 9.2752e+11
    20.234 9.2871e+11
    20.246  9.299e+11
    20.259 9.3109e+11
    20.271 9.3228e+11
    20.283 9.3348e+11
    20.296 9.3466e+11
    20.308 9.3586e+11
    20.321 9.3705e+11
    20.333 9.3824e+11
    20.345 9.3943e+11
    20.358 9.4062e+11
     20.37 9.4181e+11
    20.383   9.43e+11
    20.395  9.442e+11
    20.407 9.4539e+11
     20.42 9.4658e+11
    20.432 9.4778e+11
    20.445 9.4898e+11
    20.457 9.5017e+11
    20.469 9.5136e+11
    20.482 9.5255e+11
    20.494 9.5375e+11
    20.507 9.5494e+11
    20.519 9.5614e+11
    20.531 9.5733e+11
    20.544 9.5853e+11
    20.556 9.5973e+11
    20.569 9.6092e+11
    20.581 9.6211e+11
    20.593 9.6331e+11
    20.606 9.6451e+11
    20.618 9.6571e+11
     20.63  9.669e+11
    20.643  9.681e+11
    20.655  9.693e+11
    20.668  9.705e+11
     20.68 9.7169e+11
    20.692 9.7289e+11
    20.705 9.7409e+11
    20.717 9.7529e+11
     20.73 9.7649e+11
    20.742 9.7769e+11
    20.754 9.7889e+11
    20.767 9.8009e+11
    20.779 9.8129e+11
    20.792 9.8249e+11
    20.804 9.8369e+11
    20.816 9.8489e+11
    20.829 9.8609e+11
    20.841 9.8729e+11
    20.854 9.8849e+11
    20.866 9.8969e+11
    20.878  9.909e+11
    20.891  9.921e+11
    20.903 9.9331e+11
    20.916  9.945e+11
    20.928 9.9571e+11
     20.94 9.9691e+11
    20.953 9.9811e+11
    20.965 9.9932e+11
    20.978 1.0005e+12
     20.99 1.0017e+12
    21.002 1.0029e+12
    21.015 1.0041e+12
    21.027 1.0053e+12
     21.04 1.0065e+12
    21.052 1.0077e+12
    21.064 1.0089e+12
    21.077 1.0102e+12
    21.089 1.0114e+12
    21.102 1.0126e+12
    21.114 1.0138e+12
    21.126  1.015e+12
    21.139 1.0162e+12
    21.151 1.0174e+12
    21.164 1.0186e+12
    21.176 1.0198e+12
    21.188  1.021e+12
    21.201 1.0222e+12
    21.213 1.0234e+12
    21.226 1.0246e+12
    21.238 1.0258e+12
     21.25  1.027e+12
    21.263 1.0283e+12
    21.275 1.0295e+12
    21.288 1.0307e+12
      21.3 1.0319e+12
    21.312 1.0331e+12
    21.325 1.0343e+12
    21.337 1.0355e+12
     21.35 1.0367e+12
    21.362 1.0379e+12
    21.374 1.0391e+12
    21.387 1.0404e+12
    21.399 1.0416e+12
    21.412 1.0428e+12
    21.424  1.044e+12
    21.436 1.0452e+12
    21.449 1.0464e+12
    21.461 1.0476e+12
    21.474 1.0488e+12
    21.486   1.05e+12
    21.498 1.0513e+12
    21.511 1.0525e+12
    21.523 1.0537e+12
    21.536 1.0549e+12
    21.548 1.0561e+12
     21.56 1.0573e+12
    21.573 1.0585e+12
    21.585 1.0597e+12
    21.598  1.061e+12
     21.61 1.0622e+12
    21.622 1.0634e+12
    21.635 1.0646e+12
    21.647 1.0658e+12
     21.66  1.067e+12
    21.672 1.0682e+12
    21.684 1.0695e+12
    21.697 1.0707e+12
    21.709 1.0719e+12
    21.722 1.0731e+12
    21.734 1.0743e+12
    21.746 1.0755e+12
    21.759 1.0767e+12
    21.771  1.078e+12
    21.784 1.0792e+12
    21.796 1.0804e+12
    21.808 1.0816e+12
    21.821 1.0828e+12
    21.833  1.084e+12
    21.846 1.0853e+12
    21.858 1.0865e+12
     21.87 1.0877e+12
    21.883 1.0889e+12
    21.895 1.0901e+12
    21.908 1.0913e+12
     21.92 1.0926e+12
    21.932 1.0938e+12
    21.945  1.095e+12
    21.957 1.0962e+12
    21.969 1.0974e+12
    21.982 1.0987e+12
    21.994 1.0999e+12
    22.007 1.1011e+12
    22.019 1.1023e+12
    22.031 1.1035e+12
    22.044 1.1047e+12
    22.056  1.106e+12
    22.069 1.1072e+12
    22.081 1.1084e+12
    22.093 1.1096e+12
    22.106 1.1109e+12
    22.118 1.1121e+12
    22.131 1.1133e+12
    22.143 1.1145e+12
    22.155 1.1157e+12
    22.168  1.117e+12
     22.18 1.1182e+12
    22.193 1.1194e+12
    22.205 1.1206e+12
    22.217 1.1218e+12
     22.23 1.1231e+12
    22.242 1.1243e+12
    22.255 1.1255e+12
    22.267 1.1267e+12
    22.279 1.1279e+12
    22.292 1.1292e+12
    22.304 1.1304e+12
    22.317 1.1316e+12
    22.329 1.1328e+12
    22.341 1.1341e+12
    22.354 1.1353e+12
    22.366 1.1365e+12
    22.379 1.1377e+12
    22.391  1.139e+12
    22.403 1.1402e+12
    22.416 1.1414e+12
    22.428 1.1426e+12
    22.441 1.1438e+12
    22.453 1.1451e+12
    22.465 1.1463e+12
    22.478 1.1475e+12
     22.49 1.1487e+12
    22.503   1.15e+12
    22.515 1.1512e+12
    22.527 1.1524e+12
     22.54 1.1536e+12
    22.552 1.1549e+12
    22.565 1.1561e+12
    22.577 1.1573e+12
    22.589 1.1585e+12
    22.602 1.1598e+12
    22.614  1.161e+12
    22.627 1.1622e+12
    22.639 1.1634e+12
    22.651 1.1647e+12
    22.664 1.1659e+12
    22.676 1.1671e+12
    22.689 1.1683e+12
    22.701 1.1696e+12
    22.713 1.1708e+12
    22.726  1.172e+12
    22.738 1.1733e+12
    22.751 1.1745e+12
    22.763 1.1757e+12
    22.775 1.1769e+12
    22.788 1.1782e+12
      22.8 1.1794e+12
    22.813 1.1806e+12
    22.825 1.1818e+12
    22.837 1.1831e+12
     22.85 1.1843e+12
    22.862 1.1855e+12
    22.875 1.1868e+12
    22.887  1.188e+12
    22.899 1.1892e+12
    22.912 1.1904e+12
    22.924 1.1917e+12
    22.937 1.1929e+12
    22.949 1.1941e+12
    22.961 1.1954e+12
    22.974 1.1966e+12
    22.986 1.1978e+12
    22.999  1.199e+12
    23.011 1.2003e+12
    23.023 1.2015e+12
    23.036 1.2027e+12
    23.048  1.204e+12
    23.061 1.2052e+12
    23.073 1.2064e+12
    23.085 1.2077e+12
    23.098 1.2089e+12
     23.11 1.2101e+12
    23.123 1.2113e+12
    23.135 1.2126e+12
    23.147 1.2138e+12
     23.16  1.215e+12
    23.172 1.2163e+12
    23.185 1.2175e+12
    23.197 1.2187e+12
    23.209   1.22e+12
    23.222 1.2212e+12
    23.234 1.2224e+12
    23.247 1.2236e+12
    23.259 1.2249e+12
    23.271 1.2261e+12
    23.284 1.2273e+12
    23.296 1.2286e+12
    23.308 1.2298e+12
    23.321  1.231e+12
    23.333 1.2323e+12
    23.346 1.2335e+12
    23.358 1.2347e+12
     23.37  1.236e+12
    23.383 1.2372e+12
    23.395 1.2384e+12
    23.408 1.2397e+12
     23.42 1.2409e+12
    23.432 1.2421e+12
    23.445 1.2434e+12
    23.457 1.2446e+12
     23.47 1.2458e+12
    23.482 1.2471e+12
    23.494 1.2483e+12
    23.507 1.2495e+12
    23.519 1.2508e+12
    23.532  1.252e+12
    23.544 1.2532e+12
    23.556 1.2544e+12
    23.569 1.2557e+12
    23.581 1.2569e+12
    23.594 1.2581e+12
    23.606 1.2594e+12
    23.618 1.2606e+12
    23.631 1.2619e+12
    23.643 1.2631e+12
    23.656 1.2643e+12
    23.668 1.2656e+12
     23.68 1.2668e+12
    23.693  1.268e+12
    23.705 1.2693e+12
    23.718 1.2705e+12
     23.73 1.2717e+12
    23.742  1.273e+12
    23.755 1.2742e+12
    23.767 1.2754e+12
     23.78 1.2767e+12
    23.792 1.2779e+12
    23.804 1.2791e+12
    23.817 1.2804e+12
    23.829 1.2816e+12
    23.842 1.2828e+12
    23.854 1.2841e+12
    23.866 1.2853e+12
    23.879 1.2865e+12
    23.891 1.2878e+12
    23.904  1.289e+12
    23.916 1.2902e+12
    23.928 1.2915e+12
    23.941 1.2927e+12
    23.953  1.294e+12
    23.966 1.2952e+12
    23.978 1.2964e+12
     23.99 1.2977e+12
    24.003 1.2989e+12
    24.015 1.3001e+12
    24.028 1.3014e+12
     24.04 1.3026e+12
    24.052 1.3038e+12
    24.065 1.3051e+12
    24.077 1.3063e+12
     24.09 1.3075e+12
    24.102 1.3088e+12
    24.114   1.31e+12
    24.127 1.3113e+12
    24.139 1.3125e+12
    24.152 1.3137e+12
    24.164  1.315e+12
    24.176 1.3162e+12
    24.189 1.3174e+12
    24.201 1.3187e+12
    24.214 1.3199e+12
    24.226 1.3211e+12
    24.238 1.3224e+12
    24.251 1.3236e+12
    24.263 1.3249e+12
    24.276 1.3261e+12
    24.288 1.3273e+12
      24.3 1.3286e+12
    24.313 1.3298e+12
    24.325  1.331e+12
    24.338 1.3323e+12
     24.35 1.3335e+12
    24.362 1.3347e+12
    24.375  1.336e+12
    24.387 1.3372e+12
      24.4 1.3385e+12
    24.412 1.3397e+12
    24.424 1.3409e+12
    24.437 1.3422e+12
    24.449 1.3434e+12
    24.462 1.3446e+12
    24.474 1.3459e+12
    24.486 1.3471e+12
    24.499 1.3484e+12
    24.511 1.3496e+12
    24.524 1.3508e+12
    24.536 1.3521e+12
    24.548 1.3533e+12
    24.561 1.3545e+12
    24.573 1.3558e+12
    24.585  1.357e+12
    24.598 1.3583e+12
     24.61 1.3595e+12
    24.623 1.3607e+12
    24.635  1.362e+12
    24.647 1.3632e+12
     24.66 1.3645e+12
    24.672 1.3657e+12
    24.685 1.3669e+12
    24.697 1.3682e+12
    24.709 1.3694e+12
    24.722 1.3706e+12
    24.734 1.3719e+12
    24.747 1.3731e+12
    24.759 1.3744e+12
    24.771 1.3756e+12
    24.784 1.3768e+12
    24.796 1.3781e+12
    24.809 1.3793e+12
    24.821 1.3805e+12
    24.833 1.3818e+12
    24.846  1.383e+12
    24.858 1.3843e+12
    24.871 1.3855e+12
    24.883 1.3867e+12
    24.895  1.388e+12
    24.908 1.3892e+12
     24.92 1.3905e+12
    24.933 1.3917e+12
    24.945 1.3929e+12
    24.957 1.3942e+12
     24.97 1.3954e+12
    24.982 1.3966e+12
    24.995 1.3979e+12
    25.007 1.3991e+12
    25.019 1.4004e+12
    25.032 1.4016e+12
    25.044 1.4028e+12
    25.057 1.4041e+12
    25.069 1.4053e+12
    25.081 1.4066e+12
    25.094 1.4078e+12
    25.106  1.409e+12
    25.119 1.4103e+12
    25.131 1.4115e+12
    25.143 1.4128e+12
    25.156  1.414e+12
    25.168 1.4152e+12
    25.181 1.4165e+12
    25.193 1.4177e+12
    25.205 1.4189e+12
    25.218 1.4202e+12
     25.23 1.4214e+12
    25.243 1.4227e+12
    25.255 1.4239e+12
    25.267 1.4251e+12
     25.28 1.4264e+12
    25.292 1.4276e+12
    25.305 1.4289e+12
    25.317 1.4301e+12
    25.329 1.4313e+12
    25.342 1.4326e+12
    25.354 1.4338e+12
    25.367  1.435e+12
    25.379 1.4363e+12
    25.391 1.4375e+12
    25.404 1.4388e+12
    25.416   1.44e+12
    25.429 1.4412e+12
    25.441 1.4425e+12
    25.453 1.4437e+12
    25.466  1.445e+12
    25.478 1.4462e+12
    25.491 1.4474e+12
    25.503 1.4487e+12
    25.515 1.4499e+12
    25.528 1.4512e+12
     25.54 1.4524e+12
    25.553 1.4536e+12
    25.565 1.4549e+12
    25.577 1.4561e+12
     25.59 1.4573e+12
    25.602 1.4586e+12
    25.615 1.4598e+12
    25.627 1.4611e+12
    25.639 1.4623e+12
    25.652 1.4635e+12
    25.664 1.4648e+12
    25.677  1.466e+12
    25.689 1.4673e+12
    25.701 1.4685e+12
    25.714 1.4697e+12
    25.726  1.471e+12
    25.739 1.4722e+12
    25.751 1.4735e+12
    25.763 1.4747e+12
    25.776 1.4759e+12
    25.788 1.4772e+12
    25.801 1.4784e+12
    25.813 1.4796e+12
    25.825 1.4809e+12
    25.838 1.4821e+12
     25.85 1.4834e+12
    25.863 1.4846e+12
    25.875 1.4858e+12
    25.887 1.4871e+12
      25.9 1.4883e+12
    25.912 1.4896e+12
    25.924 1.4908e+12
    25.937  1.492e+12
    25.949 1.4933e+12
    25.962 1.4945e+12
    25.974 1.4957e+12
    25.986  1.497e+12
    25.999 1.4982e+12
    26.011 1.4995e+12
    26.024 1.5007e+12
    26.036 1.5019e+12
    26.048 1.5032e+12
    26.061 1.5044e+12
    26.073 1.5057e+12
    26.086 1.5069e+12
    26.098 1.5081e+12
     26.11 1.5094e+12
    26.123 1.5106e+12
    26.135 1.5118e+12
    26.148 1.5131e+12
     26.16 1.5143e+12
    26.172 1.5156e+12
    26.185 1.5168e+12
    26.197  1.518e+12
     26.21 1.5193e+12
    26.222 1.5205e+12
    26.234 1.5218e+12
    26.247  1.523e+12
    26.259 1.5242e+12
    26.272 1.5255e+12
    26.284 1.5267e+12
    26.296 1.5279e+12
    26.309 1.5292e+12
    26.321 1.5304e+12
    26.334 1.5317e+12
    26.346 1.5329e+12
    26.358 1.5341e+12
    26.371 1.5354e+12
    26.383 1.5366e+12
    26.396 1.5378e+12
    26.408 1.5391e+12
     26.42 1.5403e+12
    26.433 1.5416e+12
    26.445 1.5428e+12
    26.458  1.544e+12
     26.47 1.5453e+12
    26.482 1.5465e+12
    26.495 1.5478e+12
    26.507  1.549e+12
     26.52 1.5502e+12
    26.532 1.5515e+12
    26.544 1.5527e+12
    26.557 1.5539e+12
    26.569 1.5552e+12
    26.582 1.5564e+12
    26.594 1.5576e+12
    26.606 1.5589e+12
    26.619 1.5601e+12
    26.631 1.5614e+12
    26.644 1.5626e+12
    26.656 1.5638e+12
    26.668 1.5651e+12
    26.681 1.5663e+12
    26.693 1.5675e+12
    26.706 1.5688e+12
    26.718   1.57e+12
     26.73 1.5713e+12
    26.743 1.5725e+12
    26.755 1.5737e+12
    26.768  1.575e+12
     26.78 1.5762e+12
    26.792 1.5774e+12
    26.805 1.5787e+12
    26.817 1.5799e+12
     26.83 1.5811e+12
    26.842 1.5824e+12
    26.854 1.5836e+12
    26.867 1.5849e+12
    26.879 1.5861e+12
    26.892 1.5873e+12
    26.904 1.5886e+12
    26.916 1.5898e+12
    26.929  1.591e+12
    26.941 1.5923e+12
    26.954 1.5935e+12
    26.966 1.5947e+12
    26.978  1.596e+12
    26.991 1.5972e+12
    27.003 1.5985e+12
    27.016 1.5997e+12
    27.028 1.6009e+12
     27.04 1.6022e+12
    27.053 1.6034e+12
    27.065 1.6046e+12
    27.078 1.6059e+12
     27.09 1.6071e+12
    27.102 1.6083e+12
    27.115 1.6096e+12
    27.127 1.6108e+12
     27.14  1.612e+12
    27.152 1.6133e+12
    27.164 1.6145e+12
    27.177 1.6158e+12
    27.189  1.617e+12
    27.202 1.6182e+12
    27.214 1.6195e+12
    27.226 1.6207e+12
    27.239 1.6219e+12
    27.251 1.6232e+12
    27.263 1.6244e+12
    27.276 1.6256e+12
    27.288 1.6269e+12
    27.301 1.6281e+12
    27.313 1.6293e+12
    27.325 1.6306e+12
    27.338 1.6318e+12
     27.35  1.633e+12
    27.363 1.6343e+12
    27.375 1.6355e+12
    27.387 1.6367e+12
      27.4  1.638e+12
    27.412 1.6392e+12
    27.425 1.6404e+12
    27.437 1.6417e+12
    27.449 1.6429e+12
    27.462 1.6441e+12
    27.474 1.6454e+12
    27.487 1.6466e+12
    27.499 1.6479e+12
    27.511 1.6491e+12
    27.524 1.6503e+12
    27.536 1.6515e+12
    27.549 1.6528e+12
    27.561  1.654e+12
    27.573 1.6552e+12
    27.586 1.6565e+12
    27.598 1.6577e+12
    27.611 1.6589e+12
    27.623 1.6602e+12
    27.635 1.6614e+12
    27.648 1.6626e+12
     27.66 1.6639e+12
    27.673 1.6651e+12
    27.685 1.6663e+12
    27.697 1.6676e+12
     27.71 1.6688e+12
    27.722   1.67e+12
    27.735 1.6713e+12
    27.747 1.6725e+12
    27.759 1.6737e+12
    27.772  1.675e+12
    27.784 1.6762e+12
    27.797 1.6774e+12
    27.809 1.6787e+12
    27.821 1.6799e+12
    27.834 1.6811e+12
    27.846 1.6824e+12
    27.859 1.6836e+12
    27.871 1.6848e+12
    27.883 1.6861e+12
    27.896 1.6873e+12
    27.908 1.6885e+12
    27.921 1.6898e+12
    27.933  1.691e+12
    27.945 1.6922e+12
    27.958 1.6935e+12
     27.97 1.6947e+12
    27.983 1.6959e+12
    27.995 1.6971e+12
    28.007 1.6984e+12
     28.02 1.6996e+12
    28.032 1.7008e+12
    28.045 1.7021e+12
    28.057 1.7033e+12
    28.069 1.7045e+12
    28.082 1.7058e+12
    28.094  1.707e+12
    28.107 1.7082e+12
    28.119 1.7094e+12
    28.131 1.7107e+12
    28.144 1.7119e+12
    28.156 1.7131e+12
    28.169 1.7144e+12
    28.181 1.7156e+12
    28.193 1.7168e+12
    28.206 1.7181e+12
    28.218 1.7193e+12
    28.231 1.7205e+12
    28.243 1.7217e+12
    28.255  1.723e+12
    28.268 1.7242e+12
     28.28 1.7254e+12
    28.293 1.7267e+12
    28.305 1.7279e+12
    28.317 1.7291e+12
     28.33 1.7304e+12
    28.342 1.7316e+12
    28.355 1.7328e+12
    28.367  1.734e+12
    28.379 1.7353e+12
    28.392 1.7365e+12
    28.404 1.7377e+12
    28.417  1.739e+12
    28.429 1.7402e+12
    28.441 1.7414e+12
    28.454 1.7426e+12
    28.466 1.7439e+12
    28.479 1.7451e+12
    28.491 1.7463e+12
    28.503 1.7476e+12
    28.516 1.7488e+12
    28.528   1.75e+12
    28.541 1.7512e+12
    28.553 1.7525e+12
    28.565 1.7537e+12
    28.578 1.7549e+12
     28.59 1.7561e+12
    28.602 1.7574e+12
    28.615 1.7586e+12
    28.627 1.7598e+12
     28.64 1.7611e+12
    28.652 1.7623e+12
    28.664 1.7635e+12
    28.677 1.7647e+12
    28.689 1.7659e+12
    28.702 1.7672e+12
    28.714 1.7684e+12
    28.726 1.7696e+12
    28.739 1.7709e+12
    28.751 1.7721e+12
    28.764 1.7733e+12
    28.776 1.7745e+12
    28.788 1.7758e+12
    28.801  1.777e+12
    28.813 1.7782e+12
    28.826 1.7794e+12
    28.838 1.7807e+12
     28.85 1.7819e+12
    28.863 1.7831e+12
    28.875 1.7843e+12
    28.888 1.7856e+12
      28.9 1.7868e+12
    28.912  1.788e+12
    28.925 1.7892e+12
    28.937 1.7905e+12
     28.95 1.7917e+12
    28.962 1.7929e+12
    28.974 1.7941e+12
    28.987 1.7954e+12
    28.999 1.7966e+12
    29.012 1.7978e+12
    29.024  1.799e+12
    29.036 1.8003e+12
    29.049 1.8015e+12
    29.061 1.8027e+12
    29.074 1.8039e+12
    29.086 1.8052e+12
    29.098 1.8064e+12
    29.111 1.8076e+12
    29.123 1.8088e+12
    29.136   1.81e+12
    29.148 1.8113e+12
     29.16 1.8125e+12
    29.173 1.8137e+12
    29.185 1.8149e+12
    29.198 1.8162e+12
     29.21 1.8174e+12
    29.222 1.8186e+12
    29.235 1.8198e+12
    29.247 1.8211e+12
     29.26 1.8223e+12
    29.272 1.8235e+12
    29.284 1.8247e+12
    29.297 1.8259e+12
    29.309 1.8272e+12
    29.322 1.8284e+12
    29.334 1.8296e+12
    29.346 1.8308e+12
    29.359  1.832e+12
    29.371 1.8333e+12
    29.384 1.8345e+12
    29.396 1.8357e+12
    29.408 1.8369e+12
    29.421 1.8382e+12
    29.433 1.8394e+12
    29.446 1.8406e+12
    29.458 1.8418e+12
     29.47  1.843e+12
    29.483 1.8443e+12
    29.495 1.8455e+12
    29.508 1.8467e+12
     29.52 1.8479e+12
    29.532 1.8491e+12
    29.545 1.8503e+12
    29.557 1.8516e+12
     29.57 1.8528e+12
    29.582  1.854e+12
    29.594 1.8552e+12
    29.607 1.8564e+12
    29.619 1.8577e+12
    29.632 1.8589e+12
    29.644 1.8601e+12
    29.656 1.8613e+12
    29.669 1.8625e+12
    29.681 1.8638e+12
    29.694  1.865e+12
    29.706 1.8662e+12
    29.718 1.8674e+12
    29.731 1.8686e+12
    29.743 1.8698e+12
    29.756 1.8711e+12
    29.768 1.8723e+12
     29.78 1.8735e+12
    29.793 1.8747e+12
    29.805 1.8759e+12
    29.818 1.8772e+12
     29.83 1.8784e+12
    29.842 1.8796e+12
    29.855 1.8808e+12
    29.867  1.882e+12
     29.88 1.8832e+12
    29.892 1.8845e+12
    29.904 1.8857e+12
    29.917 1.8869e+12
    29.929 1.8881e+12
    29.941 1.8893e+12
    29.954 1.8905e+12
    29.966 1.8918e+12
    29.979  1.893e+12
    29.991 1.8942e+12
    30.003 1.8954e+12
