RRKM rate, sf=0.970, S*=-15.95, E0=0.03 and Delta=-1.32
   En (eV)    k (s-1)
         0          0
  0.012398          0
  0.024796          0
  0.037194 2.4982e+11
  0.049593 2.9979e+11
  0.061991 4.6121e+11
  0.074389 4.5913e+11
  0.086787 5.8688e+11
  0.099185  6.298e+11
   0.11158 7.2826e+11
   0.12398 7.6289e+11
   0.13638 8.3141e+11
   0.14878 8.7831e+11
   0.16118 9.3989e+11
   0.17357 9.8574e+11
   0.18597 1.0344e+12
   0.19837 1.0782e+12
   0.21077 1.1241e+12
   0.22317 1.1668e+12
   0.23556 1.2077e+12
   0.24796 1.2471e+12
   0.26036 1.2855e+12
   0.27276 1.3233e+12
   0.28516 1.3595e+12
   0.29756 1.3949e+12
   0.30995 1.4289e+12
   0.32235 1.4627e+12
   0.33475 1.4952e+12
   0.34715 1.5273e+12
   0.35955 1.5582e+12
   0.37194 1.5889e+12
   0.38434 1.6186e+12
   0.39674 1.6479e+12
   0.40914 1.6764e+12
   0.42154 1.7044e+12
   0.43393 1.7318e+12
   0.44633 1.7589e+12
   0.45873 1.7853e+12
   0.47113 1.8113e+12
   0.48353 1.8368e+12
   0.49593 1.8619e+12
   0.50832 1.8866e+12
   0.52072 1.9109e+12
   0.53312 1.9348e+12
   0.54552 1.9583e+12
   0.55792 1.9814e+12
   0.57031 2.0042e+12
   0.58271 2.0267e+12
   0.59511 2.0488e+12
   0.60751 2.0707e+12
   0.61991 2.0922e+12
    0.6323 2.1134e+12
    0.6447 2.1343e+12
    0.6571  2.155e+12
    0.6695 2.1754e+12
    0.6819 2.1955e+12
    0.6943 2.2154e+12
   0.70669 2.2351e+12
   0.71909 2.2544e+12
   0.73149 2.2736e+12
   0.74389 2.2925e+12
   0.75629 2.3112e+12
   0.76868 2.3297e+12
   0.78108  2.348e+12
   0.79348 2.3661e+12
   0.80588  2.384e+12
   0.81828 2.4017e+12
   0.83067 2.4192e+12
   0.84307 2.4365e+12
   0.85547 2.4536e+12
   0.86787 2.4706e+12
   0.88027 2.4873e+12
   0.89267  2.504e+12
   0.90506 2.5204e+12
   0.91746 2.5367e+12
   0.92986 2.5528e+12
   0.94226 2.5688e+12
   0.95466 2.5846e+12
   0.96705 2.6003e+12
   0.97945 2.6158e+12
   0.99185 2.6312e+12
    1.0042 2.6464e+12
    1.0166 2.6615e+12
     1.029 2.6765e+12
    1.0414 2.6913e+12
    1.0538  2.706e+12
    1.0662 2.7206e+12
    1.0786 2.7351e+12
     1.091 2.7494e+12
    1.1034 2.7636e+12
    1.1158 2.7777e+12
    1.1282 2.7917e+12
    1.1406 2.8056e+12
     1.153 2.8193e+12
    1.1654  2.833e+12
    1.1778 2.8465e+12
    1.1902 2.8599e+12
    1.2026 2.8733e+12
     1.215 2.8865e+12
    1.2274 2.8996e+12
    1.2398 2.9126e+12
    1.2522 2.9256e+12
    1.2646 2.9384e+12
     1.277 2.9511e+12
    1.2894 2.9638e+12
    1.3018 2.9763e+12
    1.3142 2.9888e+12
    1.3266 3.0012e+12
     1.339 3.0135e+12
    1.3514 3.0257e+12
    1.3638 3.0378e+12
    1.3762 3.0498e+12
    1.3886 3.0618e+12
     1.401 3.0736e+12
    1.4134 3.0854e+12
    1.4258 3.0971e+12
    1.4382 3.1087e+12
    1.4506 3.1203e+12
     1.463 3.1318e+12
    1.4754 3.1432e+12
    1.4878 3.1545e+12
    1.5002 3.1658e+12
    1.5126  3.177e+12
     1.525 3.1881e+12
    1.5374 3.1991e+12
    1.5498 3.2101e+12
    1.5622  3.221e+12
    1.5746 3.2319e+12
     1.587 3.2427e+12
    1.5994 3.2534e+12
    1.6118  3.264e+12
    1.6242 3.2746e+12
    1.6366 3.2851e+12
     1.649 3.2956e+12
    1.6613  3.306e+12
    1.6737 3.3164e+12
    1.6861 3.3266e+12
    1.6985 3.3369e+12
    1.7109  3.347e+12
    1.7233 3.3571e+12
    1.7357 3.3672e+12
    1.7481 3.3772e+12
    1.7605 3.3871e+12
    1.7729  3.397e+12
    1.7853 3.4068e+12
    1.7977 3.4166e+12
    1.8101 3.4263e+12
    1.8225  3.436e+12
    1.8349 3.4456e+12
    1.8473 3.4552e+12
    1.8597 3.4647e+12
    1.8721 3.4742e+12
    1.8845 3.4836e+12
    1.8969  3.493e+12
    1.9093 3.5023e+12
    1.9217 3.5116e+12
    1.9341 3.5208e+12
    1.9465   3.53e+12
    1.9589 3.5391e+12
    1.9713 3.5482e+12
    1.9837 3.5572e+12
    1.9961 3.5662e+12
    2.0085 3.5752e+12
    2.0209 3.5841e+12
    2.0333  3.593e+12
    2.0457 3.6018e+12
    2.0581 3.6106e+12
    2.0705 3.6193e+12
    2.0829  3.628e+12
    2.0953 3.6367e+12
    2.1077 3.6453e+12
    2.1201 3.6538e+12
    2.1325 3.6624e+12
    2.1449 3.6709e+12
    2.1573 3.6793e+12
    2.1697 3.6877e+12
    2.1821 3.6961e+12
    2.1945 3.7045e+12
    2.2069 3.7128e+12
    2.2193  3.721e+12
    2.2317 3.7293e+12
    2.2441 3.7374e+12
    2.2565 3.7456e+12
    2.2689 3.7537e+12
    2.2813 3.7618e+12
    2.2937 3.7698e+12
    2.3061 3.7779e+12
    2.3185 3.7858e+12
    2.3308 3.7938e+12
    2.3432 3.8017e+12
    2.3556 3.8095e+12
     2.368 3.8174e+12
    2.3804 3.8252e+12
    2.3928  3.833e+12
    2.4052 3.8407e+12
    2.4176 3.8484e+12
      2.43 3.8561e+12
    2.4424 3.8637e+12
    2.4548 3.8714e+12
    2.4672  3.879e+12
    2.4796 3.8865e+12
     2.492  3.894e+12
    2.5044 3.9015e+12
    2.5168  3.909e+12
    2.5292 3.9164e+12
    2.5416 3.9238e+12
     2.554 3.9312e+12
    2.5664 3.9385e+12
    2.5788 3.9458e+12
    2.5912 3.9531e+12
    2.6036 3.9603e+12
     2.616 3.9676e+12
    2.6284 3.9748e+12
    2.6408 3.9819e+12
    2.6532 3.9891e+12
    2.6656 3.9962e+12
     2.678 4.0033e+12
    2.6904 4.0103e+12
    2.7028 4.0174e+12
    2.7152 4.0244e+12
    2.7276 4.0314e+12
      2.74 4.0383e+12
    2.7524 4.0452e+12
    2.7648 4.0522e+12
    2.7772  4.059e+12
    2.7896 4.0659e+12
     2.802 4.0727e+12
    2.8144 4.0795e+12
    2.8268 4.0863e+12
    2.8392  4.093e+12
    2.8516 4.0998e+12
     2.864 4.1065e+12
    2.8764 4.1132e+12
    2.8888 4.1198e+12
    2.9012 4.1264e+12
    2.9136  4.133e+12
     2.926 4.1396e+12
    2.9384 4.1462e+12
    2.9508 4.1527e+12
    2.9632 4.1592e+12
    2.9756 4.1657e+12
     2.988 4.1722e+12
    3.0003 4.1786e+12
    3.0127 4.1851e+12
    3.0251 4.1915e+12
    3.0375 4.1979e+12
    3.0499 4.2042e+12
    3.0623 4.2106e+12
    3.0747 4.2169e+12
    3.0871 4.2232e+12
    3.0995 4.2294e+12
    3.1119 4.2357e+12
    3.1243 4.2419e+12
    3.1367 4.2481e+12
    3.1491 4.2543e+12
    3.1615 4.2605e+12
    3.1739 4.2666e+12
    3.1863 4.2728e+12
    3.1987 4.2789e+12
    3.2111  4.285e+12
    3.2235  4.291e+12
    3.2359 4.2971e+12
    3.2483 4.3031e+12
    3.2607 4.3091e+12
    3.2731 4.3151e+12
    3.2855 4.3211e+12
    3.2979  4.327e+12
    3.3103  4.333e+12
    3.3227 4.3389e+12
    3.3351 4.3448e+12
    3.3475 4.3506e+12
    3.3599 4.3565e+12
    3.3723 4.3623e+12
    3.3847 4.3682e+12
    3.3971  4.374e+12
    3.4095 4.3798e+12
    3.4219 4.3855e+12
    3.4343 4.3913e+12
    3.4467  4.397e+12
    3.4591 4.4027e+12
    3.4715 4.4084e+12
    3.4839 4.4141e+12
    3.4963 4.4198e+12
    3.5087 4.4254e+12
    3.5211  4.431e+12
    3.5335 4.4366e+12
    3.5459 4.4422e+12
    3.5583 4.4478e+12
    3.5707 4.4534e+12
    3.5831 4.4589e+12
    3.5955 4.4645e+12
    3.6079   4.47e+12
    3.6203 4.4754e+12
    3.6327 4.4809e+12
    3.6451 4.4864e+12
    3.6574 4.4918e+12
    3.6698 4.4973e+12
    3.6822 4.5027e+12
    3.6946 4.5081e+12
     3.707 4.5135e+12
    3.7194 4.5188e+12
    3.7318 4.5242e+12
    3.7442 4.5295e+12
    3.7566 4.5348e+12
     3.769 4.5401e+12
    3.7814 4.5454e+12
    3.7938 4.5507e+12
    3.8062  4.556e+12
    3.8186 4.5612e+12
     3.831 4.5665e+12
    3.8434 4.5716e+12
    3.8558 4.5769e+12
    3.8682  4.582e+12
    3.8806 4.5872e+12
     3.893 4.5924e+12
    3.9054 4.5975e+12
    3.9178 4.6026e+12
    3.9302 4.6078e+12
    3.9426 4.6129e+12
     3.955 4.6179e+12
    3.9674  4.623e+12
    3.9798 4.6281e+12
    3.9922 4.6331e+12
    4.0046 4.6381e+12
     4.017 4.6432e+12
    4.0294 4.6482e+12
    4.0418 4.6532e+12
    4.0542 4.6581e+12
    4.0666 4.6631e+12
     4.079 4.6681e+12
    4.0914  4.673e+12
    4.1038 4.6779e+12
    4.1162 4.6828e+12
    4.1286 4.6877e+12
     4.141 4.6926e+12
    4.1534 4.6975e+12
    4.1658 4.7023e+12
    4.1782 4.7072e+12
    4.1906  4.712e+12
     4.203 4.7168e+12
    4.2154 4.7216e+12
    4.2278 4.7264e+12
    4.2402 4.7312e+12
    4.2526  4.736e+12
     4.265 4.7407e+12
    4.2774 4.7455e+12
    4.2898 4.7502e+12
    4.3022 4.7549e+12
    4.3146 4.7596e+12
    4.3269 4.7643e+12
    4.3393  4.769e+12
    4.3517 4.7737e+12
    4.3641 4.7783e+12
    4.3765  4.783e+12
    4.3889 4.7876e+12
    4.4013 4.7923e+12
    4.4137 4.7969e+12
    4.4261 4.8015e+12
    4.4385 4.8061e+12
    4.4509 4.8106e+12
    4.4633 4.8152e+12
    4.4757 4.8198e+12
    4.4881 4.8243e+12
    4.5005 4.8288e+12
    4.5129 4.8334e+12
    4.5253 4.8379e+12
    4.5377 4.8424e+12
    4.5501 4.8469e+12
    4.5625 4.8513e+12
    4.5749 4.8558e+12
    4.5873 4.8602e+12
    4.5997 4.8647e+12
    4.6121 4.8691e+12
    4.6245 4.8736e+12
    4.6369  4.878e+12
    4.6493 4.8824e+12
    4.6617 4.8868e+12
    4.6741 4.8912e+12
    4.6865 4.8955e+12
    4.6989 4.8999e+12
    4.7113 4.9042e+12
    4.7237 4.9086e+12
    4.7361 4.9129e+12
    4.7485 4.9172e+12
    4.7609 4.9215e+12
    4.7733 4.9258e+12
    4.7857 4.9301e+12
    4.7981 4.9344e+12
    4.8105 4.9386e+12
    4.8229 4.9429e+12
    4.8353 4.9471e+12
    4.8477 4.9513e+12
    4.8601 4.9556e+12
    4.8725 4.9598e+12
    4.8849  4.964e+12
    4.8973 4.9682e+12
    4.9097 4.9724e+12
    4.9221 4.9766e+12
    4.9345 4.9807e+12
    4.9469 4.9849e+12
    4.9593  4.989e+12
    4.9717 4.9932e+12
     4.984 4.9973e+12
    4.9964 5.0014e+12
    5.0088 5.0055e+12
    5.0212 5.0096e+12
    5.0336 5.0137e+12
     5.046 5.0178e+12
    5.0584 5.0219e+12
    5.0708 5.0259e+12
    5.0832   5.03e+12
    5.0956  5.034e+12
     5.108 5.0381e+12
    5.1204 5.0421e+12
    5.1328 5.0461e+12
    5.1452 5.0501e+12
    5.1576 5.0541e+12
      5.17 5.0581e+12
    5.1824 5.0621e+12
    5.1948 5.0661e+12
    5.2072   5.07e+12
    5.2196  5.074e+12
     5.232 5.0779e+12
    5.2444 5.0819e+12
    5.2568 5.0858e+12
    5.2692 5.0897e+12
    5.2816 5.0936e+12
     5.294 5.0975e+12
    5.3064 5.1014e+12
    5.3188 5.1053e+12
    5.3312 5.1092e+12
    5.3436 5.1131e+12
     5.356 5.1169e+12
    5.3684 5.1208e+12
    5.3808 5.1246e+12
    5.3932 5.1284e+12
    5.4056 5.1323e+12
     5.418 5.1361e+12
    5.4304 5.1399e+12
    5.4428 5.1437e+12
    5.4552 5.1475e+12
    5.4676 5.1513e+12
      5.48 5.1551e+12
    5.4924 5.1588e+12
    5.5048 5.1626e+12
    5.5172 5.1663e+12
    5.5296 5.1701e+12
     5.542 5.1738e+12
    5.5544 5.1775e+12
    5.5668 5.1813e+12
    5.5792  5.185e+12
    5.5916 5.1887e+12
     5.604 5.1924e+12
    5.6164 5.1961e+12
    5.6288 5.1998e+12
    5.6412 5.2034e+12
    5.6535 5.2071e+12
    5.6659 5.2107e+12
    5.6783 5.2144e+12
    5.6907  5.218e+12
    5.7031 5.2217e+12
    5.7155 5.2253e+12
    5.7279 5.2289e+12
    5.7403 5.2325e+12
    5.7527 5.2361e+12
    5.7651 5.2397e+12
    5.7775 5.2433e+12
    5.7899 5.2469e+12
    5.8023 5.2505e+12
    5.8147 5.2541e+12
    5.8271 5.2576e+12
    5.8395 5.2612e+12
    5.8519 5.2647e+12
    5.8643 5.2683e+12
    5.8767 5.2718e+12
    5.8891 5.2753e+12
    5.9015 5.2788e+12
    5.9139 5.2823e+12
    5.9263 5.2858e+12
    5.9387 5.2893e+12
    5.9511 5.2928e+12
    5.9635 5.2963e+12
    5.9759 5.2998e+12
    5.9883 5.3033e+12
    6.0007 5.3067e+12
    6.0131 5.3102e+12
    6.0255 5.3136e+12
    6.0379 5.3171e+12
    6.0503 5.3205e+12
    6.0627 5.3239e+12
    6.0751 5.3273e+12
    6.0875 5.3307e+12
    6.0999 5.3342e+12
    6.1123 5.3376e+12
    6.1247  5.341e+12
    6.1371 5.3443e+12
    6.1495 5.3477e+12
    6.1619 5.3511e+12
    6.1743 5.3545e+12
    6.1867 5.3578e+12
    6.1991 5.3612e+12
    6.2115 5.3645e+12
    6.2239 5.3678e+12
    6.2363 5.3712e+12
    6.2487 5.3745e+12
    6.2611 5.3778e+12
    6.2735 5.3811e+12
    6.2859 5.3844e+12
    6.2983 5.3877e+12
    6.3107  5.391e+12
     6.323 5.3943e+12
    6.3354 5.3976e+12
    6.3478 5.4009e+12
    6.3602 5.4042e+12
    6.3726 5.4074e+12
     6.385 5.4107e+12
    6.3974 5.4139e+12
    6.4098 5.4172e+12
    6.4222 5.4204e+12
    6.4346 5.4236e+12
     6.447 5.4269e+12
    6.4594 5.4301e+12
    6.4718 5.4333e+12
    6.4842 5.4365e+12
    6.4966 5.4397e+12
     6.509 5.4429e+12
    6.5214 5.4461e+12
    6.5338 5.4492e+12
    6.5462 5.4524e+12
    6.5586 5.4556e+12
     6.571 5.4587e+12
    6.5834 5.4619e+12
    6.5958 5.4651e+12
    6.6082 5.4682e+12
    6.6206 5.4714e+12
     6.633 5.4745e+12
    6.6454 5.4776e+12
    6.6578 5.4807e+12
    6.6702 5.4839e+12
    6.6826  5.487e+12
     6.695 5.4901e+12
    6.7074 5.4932e+12
    6.7198 5.4963e+12
    6.7322 5.4993e+12
    6.7446 5.5024e+12
     6.757 5.5055e+12
    6.7694 5.5086e+12
    6.7818 5.5116e+12
    6.7942 5.5147e+12
    6.8066 5.5178e+12
     6.819 5.5208e+12
    6.8314 5.5238e+12
    6.8438 5.5269e+12
    6.8562 5.5299e+12
    6.8686 5.5329e+12
     6.881  5.536e+12
    6.8934  5.539e+12
    6.9058  5.542e+12
    6.9182  5.545e+12
    6.9306  5.548e+12
     6.943  5.551e+12
    6.9554 5.5539e+12
    6.9678 5.5569e+12
    6.9801 5.5599e+12
    6.9925 5.5629e+12
    7.0049 5.5659e+12
    7.0173 5.5688e+12
    7.0297 5.5718e+12
    7.0421 5.5747e+12
    7.0545 5.5777e+12
    7.0669 5.5806e+12
    7.0793 5.5835e+12
    7.0917 5.5865e+12
    7.1041 5.5894e+12
    7.1165 5.5923e+12
    7.1289 5.5952e+12
    7.1413 5.5981e+12
    7.1537  5.601e+12
    7.1661 5.6039e+12
    7.1785 5.6068e+12
    7.1909 5.6097e+12
    7.2033 5.6126e+12
    7.2157 5.6154e+12
    7.2281 5.6183e+12
    7.2405 5.6212e+12
    7.2529  5.624e+12
    7.2653 5.6269e+12
    7.2777 5.6298e+12
    7.2901 5.6326e+12
    7.3025 5.6355e+12
    7.3149 5.6383e+12
    7.3273 5.6411e+12
    7.3397 5.6439e+12
    7.3521 5.6468e+12
    7.3645 5.6495e+12
    7.3769 5.6524e+12
    7.3893 5.6552e+12
    7.4017  5.658e+12
    7.4141 5.6608e+12
    7.4265 5.6636e+12
    7.4389 5.6664e+12
    7.4513 5.6691e+12
    7.4637 5.6719e+12
    7.4761 5.6747e+12
    7.4885 5.6774e+12
    7.5009 5.6802e+12
    7.5133  5.683e+12
    7.5257 5.6857e+12
    7.5381 5.6885e+12
    7.5505 5.6912e+12
    7.5629  5.694e+12
    7.5753 5.6967e+12
    7.5877 5.6994e+12
    7.6001 5.7022e+12
    7.6125 5.7049e+12
    7.6249 5.7076e+12
    7.6373 5.7103e+12
    7.6496  5.713e+12
     7.662 5.7157e+12
    7.6744 5.7184e+12
    7.6868 5.7211e+12
    7.6992 5.7238e+12
    7.7116 5.7265e+12
     7.724 5.7291e+12
    7.7364 5.7318e+12
    7.7488 5.7345e+12
    7.7612 5.7371e+12
    7.7736 5.7398e+12
     7.786 5.7425e+12
    7.7984 5.7451e+12
    7.8108 5.7477e+12
    7.8232 5.7504e+12
    7.8356  5.753e+12
     7.848 5.7557e+12
    7.8604 5.7583e+12
    7.8728 5.7609e+12
    7.8852 5.7635e+12
    7.8976 5.7662e+12
      7.91 5.7688e+12
    7.9224 5.7714e+12
    7.9348  5.774e+12
    7.9472 5.7766e+12
    7.9596 5.7792e+12
     7.972 5.7818e+12
    7.9844 5.7844e+12
    7.9968 5.7869e+12
    8.0092 5.7895e+12
    8.0216 5.7921e+12
     8.034 5.7947e+12
    8.0464 5.7972e+12
    8.0588 5.7998e+12
    8.0712 5.8023e+12
    8.0836 5.8049e+12
     8.096 5.8074e+12
    8.1084   5.81e+12
    8.1208 5.8125e+12
    8.1332 5.8151e+12
    8.1456 5.8175e+12
     8.158 5.8201e+12
    8.1704 5.8226e+12
    8.1828 5.8251e+12
    8.1952 5.8277e+12
    8.2076 5.8302e+12
      8.22 5.8327e+12
    8.2324 5.8352e+12
    8.2448 5.8377e+12
    8.2572 5.8402e+12
    8.2696 5.8427e+12
     8.282 5.8451e+12
    8.2944 5.8476e+12
    8.3067 5.8501e+12
    8.3191 5.8526e+12
    8.3315  5.855e+12
    8.3439 5.8575e+12
    8.3563   5.86e+12
    8.3687 5.8624e+12
    8.3811 5.8649e+12
    8.3935 5.8673e+12
    8.4059 5.8698e+12
    8.4183 5.8722e+12
    8.4307 5.8746e+12
    8.4431 5.8771e+12
    8.4555 5.8795e+12
    8.4679 5.8819e+12
    8.4803 5.8844e+12
    8.4927 5.8868e+12
    8.5051 5.8892e+12
    8.5175 5.8916e+12
    8.5299  5.894e+12
    8.5423 5.8964e+12
    8.5547 5.8989e+12
    8.5671 5.9012e+12
    8.5795 5.9036e+12
    8.5919  5.906e+12
    8.6043 5.9084e+12
    8.6167 5.9107e+12
    8.6291 5.9131e+12
    8.6415 5.9155e+12
    8.6539 5.9179e+12
    8.6663 5.9203e+12
    8.6787 5.9226e+12
    8.6911  5.925e+12
    8.7035 5.9273e+12
    8.7159 5.9297e+12
    8.7283  5.932e+12
    8.7407 5.9344e+12
    8.7531 5.9367e+12
    8.7655  5.939e+12
    8.7779 5.9414e+12
    8.7903 5.9437e+12
    8.8027  5.946e+12
    8.8151 5.9484e+12
    8.8275 5.9507e+12
    8.8399 5.9529e+12
    8.8523 5.9553e+12
    8.8647 5.9576e+12
    8.8771 5.9599e+12
    8.8895 5.9622e+12
    8.9019 5.9645e+12
    8.9143 5.9668e+12
    8.9267 5.9691e+12
    8.9391 5.9714e+12
    8.9515 5.9737e+12
    8.9639 5.9759e+12
    8.9762 5.9782e+12
    8.9886 5.9805e+12
     9.001 5.9827e+12
    9.0134  5.985e+12
    9.0258 5.9873e+12
    9.0382 5.9895e+12
    9.0506 5.9917e+12
     9.063  5.994e+12
    9.0754 5.9963e+12
    9.0878 5.9985e+12
    9.1002 6.0008e+12
    9.1126  6.003e+12
     9.125 6.0052e+12
    9.1374 6.0074e+12
    9.1498 6.0097e+12
    9.1622 6.0119e+12
    9.1746 6.0141e+12
     9.187 6.0163e+12
    9.1994 6.0186e+12
    9.2118 6.0208e+12
    9.2242  6.023e+12
    9.2366 6.0252e+12
     9.249 6.0274e+12
    9.2614 6.0296e+12
    9.2738 6.0318e+12
    9.2862 6.0339e+12
    9.2986 6.0362e+12
     9.311 6.0383e+12
    9.3234 6.0405e+12
    9.3358 6.0427e+12
    9.3482 6.0448e+12
    9.3606  6.047e+12
     9.373 6.0492e+12
    9.3854 6.0513e+12
    9.3978 6.0535e+12
    9.4102 6.0557e+12
    9.4226 6.0578e+12
     9.435   6.06e+12
    9.4474 6.0621e+12
    9.4598 6.0643e+12
    9.4722 6.0664e+12
    9.4846 6.0685e+12
     9.497 6.0707e+12
    9.5094 6.0728e+12
    9.5218 6.0749e+12
    9.5342 6.0771e+12
    9.5466 6.0792e+12
     9.559 6.0813e+12
    9.5714 6.0834e+12
    9.5838 6.0855e+12
    9.5962 6.0876e+12
    9.6086 6.0897e+12
     9.621 6.0919e+12
    9.6333  6.094e+12
    9.6457  6.096e+12
    9.6581 6.0981e+12
    9.6705 6.1002e+12
    9.6829 6.1023e+12
    9.6953 6.1044e+12
    9.7077 6.1065e+12
    9.7201 6.1086e+12
    9.7325 6.1106e+12
    9.7449 6.1127e+12
    9.7573 6.1148e+12
    9.7697 6.1169e+12
    9.7821 6.1189e+12
    9.7945  6.121e+12
    9.8069  6.123e+12
    9.8193 6.1251e+12
    9.8317 6.1271e+12
    9.8441 6.1292e+12
    9.8565 6.1312e+12
    9.8689 6.1333e+12
    9.8813 6.1353e+12
    9.8937 6.1373e+12
    9.9061 6.1394e+12
    9.9185 6.1414e+12
    9.9309 6.1435e+12
    9.9433 6.1455e+12
    9.9557 6.1475e+12
    9.9681 6.1495e+12
    9.9805 6.1515e+12
    9.9929 6.1535e+12
    10.005 6.1555e+12
    10.018 6.1576e+12
     10.03 6.1596e+12
    10.042 6.1616e+12
    10.055 6.1635e+12
    10.067 6.1656e+12
     10.08 6.1675e+12
    10.092 6.1695e+12
    10.104 6.1715e+12
    10.117 6.1735e+12
    10.129 6.1755e+12
    10.142 6.1775e+12
    10.154 6.1795e+12
    10.166 6.1814e+12
    10.179 6.1834e+12
    10.191 6.1854e+12
    10.204 6.1873e+12
    10.216 6.1893e+12
    10.228 6.1912e+12
    10.241 6.1932e+12
    10.253 6.1952e+12
    10.266 6.1971e+12
    10.278  6.199e+12
     10.29  6.201e+12
    10.303  6.203e+12
    10.315 6.2049e+12
    10.328 6.2068e+12
     10.34 6.2087e+12
    10.352 6.2107e+12
    10.365 6.2126e+12
    10.377 6.2145e+12
     10.39 6.2165e+12
    10.402 6.2184e+12
    10.414 6.2203e+12
    10.427 6.2222e+12
    10.439 6.2242e+12
    10.452  6.226e+12
    10.464  6.228e+12
    10.476 6.2299e+12
    10.489 6.2318e+12
    10.501 6.2337e+12
    10.514 6.2355e+12
    10.526 6.2374e+12
    10.538 6.2393e+12
    10.551 6.2412e+12
    10.563 6.2431e+12
    10.576  6.245e+12
    10.588 6.2469e+12
      10.6 6.2488e+12
    10.613 6.2506e+12
    10.625 6.2525e+12
    10.638 6.2544e+12
     10.65 6.2562e+12
    10.662 6.2581e+12
    10.675   6.26e+12
    10.687 6.2618e+12
      10.7 6.2637e+12
    10.712 6.2655e+12
    10.724 6.2674e+12
    10.737 6.2692e+12
    10.749 6.2711e+12
    10.762  6.273e+12
    10.774 6.2747e+12
    10.786 6.2766e+12
    10.799 6.2784e+12
    10.811 6.2803e+12
    10.824 6.2821e+12
    10.836  6.284e+12
    10.848 6.2858e+12
    10.861 6.2876e+12
    10.873 6.2894e+12
    10.886 6.2912e+12
    10.898 6.2931e+12
     10.91 6.2949e+12
    10.923 6.2967e+12
    10.935 6.2985e+12
    10.948 6.3003e+12
     10.96 6.3021e+12
    10.972 6.3039e+12
    10.985 6.3057e+12
    10.997 6.3075e+12
     11.01 6.3093e+12
    11.022 6.3111e+12
    11.034 6.3129e+12
    11.047 6.3147e+12
    11.059 6.3165e+12
    11.072 6.3183e+12
    11.084   6.32e+12
    11.096 6.3218e+12
    11.109 6.3236e+12
    11.121 6.3253e+12
    11.134 6.3271e+12
    11.146 6.3289e+12
    11.158 6.3307e+12
    11.171 6.3324e+12
    11.183 6.3342e+12
    11.196 6.3359e+12
    11.208 6.3377e+12
     11.22 6.3395e+12
    11.233 6.3412e+12
    11.245  6.343e+12
    11.258 6.3447e+12
     11.27 6.3465e+12
    11.282 6.3482e+12
    11.295 6.3499e+12
    11.307 6.3517e+12
    11.319 6.3534e+12
    11.332 6.3551e+12
    11.344 6.3569e+12
    11.357 6.3586e+12
    11.369 6.3603e+12
    11.381  6.362e+12
    11.394 6.3638e+12
    11.406 6.3655e+12
    11.419 6.3672e+12
    11.431 6.3689e+12
    11.443 6.3706e+12
    11.456 6.3723e+12
    11.468  6.374e+12
    11.481 6.3758e+12
    11.493 6.3775e+12
    11.505 6.3792e+12
    11.518 6.3808e+12
     11.53 6.3825e+12
    11.543 6.3843e+12
    11.555 6.3859e+12
    11.567 6.3876e+12
     11.58 6.3893e+12
    11.592  6.391e+12
    11.605 6.3927e+12
    11.617 6.3944e+12
    11.629 6.3961e+12
    11.642 6.3977e+12
    11.654 6.3994e+12
    11.667 6.4011e+12
    11.679 6.4027e+12
    11.691 6.4044e+12
    11.704 6.4061e+12
    11.716 6.4077e+12
    11.729 6.4094e+12
    11.741 6.4111e+12
    11.753 6.4127e+12
    11.766 6.4144e+12
    11.778  6.416e+12
    11.791 6.4177e+12
    11.803 6.4193e+12
    11.815  6.421e+12
    11.828 6.4226e+12
     11.84 6.4242e+12
    11.853 6.4259e+12
    11.865 6.4276e+12
    11.877 6.4292e+12
     11.89 6.4308e+12
    11.902 6.4324e+12
    11.915  6.434e+12
    11.927 6.4357e+12
    11.939 6.4373e+12
    11.952  6.439e+12
    11.964 6.4406e+12
    11.977 6.4422e+12
    11.989 6.4438e+12
    12.001 6.4454e+12
    12.014  6.447e+12
    12.026 6.4487e+12
    12.039 6.4502e+12
    12.051 6.4519e+12
    12.063 6.4534e+12
    12.076  6.455e+12
    12.088 6.4567e+12
    12.101 6.4582e+12
    12.113 6.4598e+12
    12.125 6.4615e+12
    12.138  6.463e+12
     12.15 6.4646e+12
    12.163 6.4662e+12
    12.175 6.4678e+12
    12.187 6.4694e+12
      12.2  6.471e+12
    12.212 6.4725e+12
    12.225 6.4741e+12
    12.237 6.4757e+12
    12.249 6.4773e+12
    12.262 6.4788e+12
    12.274 6.4804e+12
    12.287  6.482e+12
    12.299 6.4835e+12
    12.311 6.4851e+12
    12.324 6.4867e+12
    12.336 6.4882e+12
    12.349 6.4898e+12
    12.361 6.4914e+12
    12.373 6.4929e+12
    12.386 6.4944e+12
    12.398  6.496e+12
    12.411 6.4975e+12
    12.423 6.4991e+12
    12.435 6.5006e+12
    12.448 6.5022e+12
     12.46 6.5037e+12
    12.473 6.5053e+12
    12.485 6.5068e+12
    12.497 6.5084e+12
     12.51 6.5099e+12
    12.522 6.5114e+12
    12.535 6.5129e+12
    12.547 6.5145e+12
    12.559  6.516e+12
    12.572 6.5175e+12
    12.584  6.519e+12
    12.597 6.5206e+12
    12.609  6.522e+12
    12.621 6.5236e+12
    12.634 6.5251e+12
    12.646 6.5266e+12
    12.658 6.5281e+12
    12.671 6.5296e+12
    12.683 6.5311e+12
    12.696 6.5326e+12
    12.708 6.5341e+12
     12.72 6.5356e+12
    12.733 6.5371e+12
    12.745 6.5386e+12
    12.758 6.5401e+12
     12.77 6.5416e+12
    12.782 6.5431e+12
    12.795 6.5446e+12
    12.807 6.5461e+12
     12.82 6.5476e+12
    12.832  6.549e+12
    12.844 6.5505e+12
    12.857  6.552e+12
    12.869 6.5535e+12
    12.882  6.555e+12
    12.894 6.5564e+12
    12.906 6.5579e+12
    12.919 6.5594e+12
    12.931 6.5609e+12
    12.944 6.5623e+12
    12.956 6.5638e+12
    12.968 6.5652e+12
    12.981 6.5667e+12
    12.993 6.5682e+12
    13.006 6.5696e+12
    13.018 6.5711e+12
     13.03 6.5725e+12
    13.043  6.574e+12
    13.055 6.5755e+12
    13.068 6.5769e+12
     13.08 6.5784e+12
    13.092 6.5798e+12
    13.105 6.5812e+12
    13.117 6.5827e+12
     13.13 6.5841e+12
    13.142 6.5855e+12
    13.154  6.587e+12
    13.167 6.5884e+12
    13.179 6.5899e+12
    13.192 6.5913e+12
    13.204 6.5927e+12
    13.216 6.5941e+12
    13.229 6.5956e+12
    13.241  6.597e+12
    13.254 6.5984e+12
    13.266 6.5999e+12
    13.278 6.6013e+12
    13.291 6.6027e+12
    13.303 6.6041e+12
    13.316 6.6055e+12
    13.328 6.6069e+12
     13.34 6.6083e+12
    13.353 6.6098e+12
    13.365 6.6112e+12
    13.378 6.6126e+12
     13.39  6.614e+12
    13.402 6.6154e+12
    13.415 6.6168e+12
    13.427 6.6182e+12
     13.44 6.6196e+12
    13.452  6.621e+12
    13.464 6.6224e+12
    13.477 6.6238e+12
    13.489 6.6251e+12
    13.502 6.6265e+12
    13.514 6.6279e+12
    13.526 6.6293e+12
    13.539 6.6307e+12
    13.551 6.6321e+12
    13.564 6.6335e+12
    13.576 6.6348e+12
    13.588 6.6362e+12
    13.601 6.6376e+12
    13.613  6.639e+12
    13.626 6.6404e+12
    13.638 6.6417e+12
     13.65 6.6431e+12
    13.663 6.6444e+12
    13.675 6.6458e+12
    13.688 6.6472e+12
      13.7 6.6485e+12
    13.712 6.6499e+12
    13.725 6.6513e+12
    13.737 6.6526e+12
     13.75  6.654e+12
    13.762 6.6553e+12
    13.774 6.6567e+12
    13.787 6.6581e+12
    13.799 6.6594e+12
    13.812 6.6607e+12
    13.824 6.6621e+12
    13.836 6.6634e+12
    13.849 6.6648e+12
    13.861 6.6661e+12
    13.874 6.6675e+12
    13.886 6.6688e+12
    13.898 6.6701e+12
    13.911 6.6715e+12
    13.923 6.6728e+12
    13.936 6.6741e+12
    13.948 6.6755e+12
     13.96 6.6768e+12
    13.973 6.6781e+12
    13.985 6.6794e+12
    13.997 6.6808e+12
     14.01 6.6821e+12
    14.022 6.6834e+12
    14.035 6.6847e+12
    14.047 6.6861e+12
    14.059 6.6874e+12
    14.072 6.6887e+12
    14.084   6.69e+12
    14.097 6.6913e+12
    14.109 6.6926e+12
    14.121 6.6939e+12
    14.134 6.6953e+12
    14.146 6.6966e+12
    14.159 6.6979e+12
    14.171 6.6992e+12
    14.183 6.7004e+12
    14.196 6.7017e+12
    14.208  6.703e+12
    14.221 6.7043e+12
    14.233 6.7057e+12
    14.245 6.7069e+12
    14.258 6.7083e+12
     14.27 6.7095e+12
    14.283 6.7108e+12
    14.295 6.7121e+12
    14.307 6.7134e+12
     14.32 6.7147e+12
    14.332  6.716e+12
    14.345 6.7172e+12
    14.357 6.7185e+12
    14.369 6.7198e+12
    14.382 6.7211e+12
    14.394 6.7224e+12
    14.407 6.7237e+12
    14.419 6.7249e+12
    14.431 6.7262e+12
    14.444 6.7274e+12
    14.456 6.7287e+12
    14.469   6.73e+12
    14.481 6.7312e+12
    14.493 6.7325e+12
    14.506 6.7338e+12
    14.518 6.7351e+12
    14.531 6.7363e+12
    14.543 6.7376e+12
    14.555 6.7388e+12
    14.568 6.7401e+12
     14.58 6.7414e+12
    14.593 6.7426e+12
    14.605 6.7439e+12
    14.617 6.7451e+12
     14.63 6.7463e+12
    14.642 6.7476e+12
    14.655 6.7488e+12
    14.667 6.7501e+12
    14.679 6.7513e+12
    14.692 6.7526e+12
    14.704 6.7538e+12
    14.717  6.755e+12
    14.729 6.7563e+12
    14.741 6.7575e+12
    14.754 6.7588e+12
    14.766   6.76e+12
    14.779 6.7612e+12
    14.791 6.7624e+12
    14.803 6.7637e+12
    14.816 6.7649e+12
    14.828 6.7661e+12
    14.841 6.7674e+12
    14.853 6.7686e+12
    14.865 6.7698e+12
    14.878  6.771e+12
     14.89 6.7723e+12
    14.903 6.7735e+12
    14.915 6.7747e+12
    14.927 6.7759e+12
     14.94 6.7771e+12
    14.952 6.7783e+12
    14.965 6.7795e+12
    14.977 6.7807e+12
    14.989 6.7819e+12
    15.002 6.7832e+12
    15.014 6.7844e+12
    15.027 6.7856e+12
    15.039 6.7868e+12
    15.051  6.788e+12
    15.064 6.7892e+12
    15.076 6.7904e+12
    15.089 6.7916e+12
    15.101 6.7928e+12
    15.113 6.7939e+12
    15.126 6.7952e+12
    15.138 6.7964e+12
    15.151 6.7976e+12
    15.163 6.7988e+12
    15.175 6.7999e+12
    15.188 6.8011e+12
      15.2 6.8023e+12
    15.213 6.8035e+12
    15.225 6.8047e+12
    15.237 6.8058e+12
     15.25  6.807e+12
    15.262 6.8082e+12
    15.275 6.8094e+12
    15.287 6.8106e+12
    15.299 6.8117e+12
    15.312 6.8129e+12
    15.324 6.8141e+12
    15.336 6.8153e+12
    15.349 6.8164e+12
    15.361 6.8176e+12
    15.374 6.8188e+12
    15.386 6.8199e+12
    15.398 6.8211e+12
    15.411 6.8223e+12
    15.423 6.8234e+12
    15.436 6.8246e+12
    15.448 6.8257e+12
     15.46 6.8269e+12
    15.473 6.8281e+12
    15.485 6.8292e+12
    15.498 6.8304e+12
     15.51 6.8315e+12
    15.522 6.8327e+12
    15.535 6.8338e+12
    15.547  6.835e+12
     15.56 6.8361e+12
    15.572 6.8372e+12
    15.584 6.8384e+12
    15.597 6.8396e+12
    15.609 6.8407e+12
    15.622 6.8418e+12
    15.634  6.843e+12
    15.646 6.8441e+12
    15.659 6.8453e+12
    15.671 6.8464e+12
    15.684 6.8475e+12
    15.696 6.8487e+12
    15.708 6.8498e+12
    15.721 6.8509e+12
    15.733 6.8521e+12
    15.746 6.8532e+12
    15.758 6.8543e+12
     15.77 6.8554e+12
    15.783 6.8566e+12
    15.795 6.8577e+12
    15.808 6.8588e+12
     15.82 6.8599e+12
    15.832 6.8611e+12
    15.845 6.8622e+12
    15.857 6.8633e+12
     15.87 6.8644e+12
    15.882 6.8656e+12
    15.894 6.8667e+12
    15.907 6.8678e+12
    15.919 6.8689e+12
    15.932   6.87e+12
    15.944 6.8711e+12
    15.956 6.8722e+12
    15.969 6.8733e+12
    15.981 6.8744e+12
    15.994 6.8755e+12
    16.006 6.8767e+12
    16.018 6.8778e+12
    16.031 6.8789e+12
    16.043   6.88e+12
    16.056 6.8811e+12
    16.068 6.8821e+12
     16.08 6.8832e+12
    16.093 6.8843e+12
    16.105 6.8854e+12
    16.118 6.8865e+12
     16.13 6.8876e+12
    16.142 6.8887e+12
    16.155 6.8898e+12
    16.167 6.8909e+12
     16.18  6.892e+12
    16.192 6.8931e+12
    16.204 6.8942e+12
    16.217 6.8952e+12
    16.229 6.8963e+12
    16.242 6.8974e+12
    16.254 6.8985e+12
    16.266 6.8995e+12
    16.279 6.9007e+12
    16.291 6.9017e+12
    16.304 6.9028e+12
    16.316 6.9039e+12
    16.328 6.9049e+12
    16.341  6.906e+12
    16.353 6.9071e+12
    16.366 6.9082e+12
    16.378 6.9092e+12
     16.39 6.9103e+12
    16.403 6.9114e+12
    16.415 6.9124e+12
    16.428 6.9135e+12
     16.44 6.9146e+12
    16.452 6.9156e+12
    16.465 6.9167e+12
    16.477 6.9177e+12
     16.49 6.9188e+12
    16.502 6.9198e+12
    16.514 6.9209e+12
    16.527  6.922e+12
    16.539  6.923e+12
    16.552 6.9241e+12
    16.564 6.9251e+12
    16.576 6.9262e+12
    16.589 6.9272e+12
    16.601 6.9283e+12
    16.613 6.9293e+12
    16.626 6.9304e+12
    16.638 6.9314e+12
    16.651 6.9325e+12
    16.663 6.9335e+12
    16.675 6.9346e+12
    16.688 6.9356e+12
      16.7 6.9366e+12
    16.713 6.9377e+12
    16.725 6.9387e+12
    16.737 6.9398e+12
     16.75 6.9408e+12
    16.762 6.9418e+12
    16.775 6.9429e+12
    16.787 6.9439e+12
    16.799 6.9449e+12
    16.812 6.9459e+12
    16.824  6.947e+12
    16.837  6.948e+12
    16.849  6.949e+12
    16.861 6.9501e+12
    16.874 6.9511e+12
    16.886 6.9521e+12
    16.899 6.9531e+12
    16.911 6.9542e+12
    16.923 6.9552e+12
    16.936 6.9562e+12
    16.948 6.9572e+12
    16.961 6.9582e+12
    16.973 6.9593e+12
    16.985 6.9603e+12
    16.998 6.9613e+12
     17.01 6.9623e+12
    17.023 6.9633e+12
    17.035 6.9643e+12
    17.047 6.9653e+12
     17.06 6.9664e+12
    17.072 6.9673e+12
    17.085 6.9684e+12
    17.097 6.9694e+12
    17.109 6.9704e+12
    17.122 6.9714e+12
    17.134 6.9724e+12
    17.147 6.9734e+12
    17.159 6.9744e+12
    17.171 6.9754e+12
    17.184 6.9764e+12
    17.196 6.9774e+12
    17.209 6.9784e+12
    17.221 6.9794e+12
    17.233 6.9804e+12
    17.246 6.9814e+12
    17.258 6.9823e+12
    17.271 6.9834e+12
    17.283 6.9843e+12
    17.295 6.9853e+12
    17.308 6.9863e+12
     17.32 6.9873e+12
    17.333 6.9883e+12
    17.345 6.9893e+12
    17.357 6.9902e+12
     17.37 6.9912e+12
    17.382 6.9922e+12
    17.395 6.9932e+12
    17.407 6.9942e+12
    17.419 6.9951e+12
    17.432 6.9961e+12
    17.444 6.9971e+12
    17.457 6.9981e+12
    17.469 6.9991e+12
    17.481 7.0001e+12
    17.494  7.001e+12
    17.506  7.002e+12
    17.519  7.003e+12
    17.531 7.0039e+12
    17.543 7.0049e+12
    17.556 7.0059e+12
    17.568 7.0068e+12
    17.581 7.0078e+12
    17.593 7.0088e+12
    17.605 7.0097e+12
    17.618 7.0107e+12
     17.63 7.0117e+12
    17.643 7.0126e+12
    17.655 7.0136e+12
    17.667 7.0145e+12
     17.68 7.0155e+12
    17.692 7.0165e+12
    17.705 7.0174e+12
    17.717 7.0184e+12
    17.729 7.0193e+12
    17.742 7.0203e+12
    17.754 7.0212e+12
    17.767 7.0222e+12
    17.779 7.0231e+12
    17.791 7.0241e+12
    17.804  7.025e+12
    17.816  7.026e+12
    17.829 7.0269e+12
    17.841 7.0279e+12
    17.853 7.0288e+12
    17.866 7.0298e+12
    17.878 7.0307e+12
    17.891 7.0316e+12
    17.903 7.0326e+12
    17.915 7.0335e+12
    17.928 7.0345e+12
     17.94 7.0354e+12
    17.952 7.0364e+12
    17.965 7.0373e+12
    17.977 7.0383e+12
     17.99 7.0392e+12
    18.002 7.0401e+12
    18.014 7.0411e+12
    18.027  7.042e+12
    18.039 7.0429e+12
    18.052 7.0438e+12
    18.064 7.0448e+12
    18.076 7.0457e+12
    18.089 7.0466e+12
    18.101 7.0476e+12
    18.114 7.0485e+12
    18.126 7.0494e+12
    18.138 7.0503e+12
    18.151 7.0512e+12
    18.163 7.0522e+12
    18.176 7.0531e+12
    18.188  7.054e+12
      18.2 7.0549e+12
    18.213 7.0559e+12
    18.225 7.0568e+12
    18.238 7.0577e+12
     18.25 7.0586e+12
    18.262 7.0595e+12
    18.275 7.0604e+12
    18.287 7.0613e+12
      18.3 7.0622e+12
    18.312 7.0632e+12
    18.324 7.0641e+12
    18.337  7.065e+12
    18.349 7.0659e+12
    18.362 7.0668e+12
    18.374 7.0677e+12
    18.386 7.0686e+12
    18.399 7.0695e+12
    18.411 7.0704e+12
    18.424 7.0713e+12
    18.436 7.0723e+12
    18.448 7.0731e+12
    18.461  7.074e+12
    18.473 7.0749e+12
    18.486 7.0758e+12
    18.498 7.0767e+12
     18.51 7.0776e+12
    18.523 7.0785e+12
    18.535 7.0794e+12
    18.548 7.0803e+12
     18.56 7.0812e+12
    18.572 7.0821e+12
    18.585  7.083e+12
    18.597 7.0839e+12
     18.61 7.0848e+12
    18.622 7.0856e+12
    18.634 7.0865e+12
    18.647 7.0874e+12
    18.659 7.0883e+12
    18.672 7.0892e+12
    18.684 7.0901e+12
    18.696  7.091e+12
    18.709 7.0918e+12
    18.721 7.0927e+12
    18.734 7.0936e+12
    18.746 7.0945e+12
    18.758 7.0954e+12
    18.771 7.0963e+12
    18.783 7.0971e+12
    18.796  7.098e+12
    18.808 7.0989e+12
     18.82 7.0997e+12
    18.833 7.1006e+12
    18.845 7.1015e+12
    18.858 7.1024e+12
     18.87 7.1032e+12
    18.882 7.1041e+12
    18.895  7.105e+12
    18.907 7.1059e+12
     18.92 7.1067e+12
    18.932 7.1076e+12
    18.944 7.1085e+12
    18.957 7.1093e+12
    18.969 7.1102e+12
    18.982 7.1111e+12
    18.994 7.1119e+12
    19.006 7.1128e+12
    19.019 7.1136e+12
    19.031 7.1145e+12
    19.044 7.1154e+12
    19.056 7.1162e+12
    19.068 7.1171e+12
    19.081 7.1179e+12
    19.093 7.1188e+12
    19.106 7.1197e+12
    19.118 7.1205e+12
     19.13 7.1214e+12
    19.143 7.1222e+12
    19.155 7.1231e+12
    19.168 7.1239e+12
     19.18 7.1248e+12
    19.192 7.1256e+12
    19.205 7.1265e+12
    19.217 7.1273e+12
     19.23 7.1282e+12
    19.242  7.129e+12
    19.254 7.1298e+12
    19.267 7.1307e+12
    19.279 7.1316e+12
    19.291 7.1324e+12
    19.304 7.1333e+12
    19.316 7.1341e+12
    19.329 7.1349e+12
    19.341 7.1358e+12
    19.353 7.1366e+12
    19.366 7.1375e+12
    19.378 7.1383e+12
    19.391 7.1391e+12
    19.403   7.14e+12
    19.415 7.1408e+12
    19.428 7.1416e+12
     19.44 7.1425e+12
    19.453 7.1433e+12
    19.465 7.1441e+12
    19.477  7.145e+12
     19.49 7.1458e+12
    19.502 7.1466e+12
    19.515 7.1474e+12
    19.527 7.1483e+12
    19.539 7.1491e+12
    19.552   7.15e+12
    19.564 7.1507e+12
    19.577 7.1516e+12
    19.589 7.1524e+12
    19.601 7.1532e+12
    19.614 7.1541e+12
    19.626 7.1549e+12
    19.639 7.1557e+12
    19.651 7.1565e+12
    19.663 7.1574e+12
    19.676 7.1582e+12
    19.688  7.159e+12
    19.701 7.1598e+12
    19.713 7.1606e+12
    19.725 7.1615e+12
    19.738 7.1623e+12
     19.75 7.1631e+12
    19.763 7.1639e+12
    19.775 7.1647e+12
    19.787 7.1655e+12
      19.8 7.1663e+12
    19.812 7.1671e+12
    19.825  7.168e+12
    19.837 7.1688e+12
    19.849 7.1696e+12
    19.862 7.1704e+12
    19.874 7.1712e+12
    19.887  7.172e+12
    19.899 7.1728e+12
    19.911 7.1736e+12
    19.924 7.1744e+12
    19.936 7.1752e+12
    19.949  7.176e+12
    19.961 7.1768e+12
    19.973 7.1776e+12
    19.986 7.1784e+12
    19.998 7.1792e+12
    20.011   7.18e+12
    20.023 7.1808e+12
    20.035 7.1816e+12
    20.048 7.1824e+12
     20.06 7.1832e+12
    20.073  7.184e+12
    20.085 7.1848e+12
    20.097 7.1856e+12
     20.11 7.1864e+12
    20.122 7.1872e+12
    20.135 7.1879e+12
    20.147 7.1888e+12
    20.159 7.1896e+12
    20.172 7.1904e+12
    20.184 7.1911e+12
    20.197 7.1919e+12
    20.209 7.1927e+12
    20.221 7.1935e+12
    20.234 7.1943e+12
    20.246  7.195e+12
    20.259 7.1958e+12
    20.271 7.1966e+12
    20.283 7.1974e+12
    20.296 7.1982e+12
    20.308  7.199e+12
    20.321 7.1997e+12
    20.333 7.2005e+12
    20.345 7.2013e+12
    20.358 7.2021e+12
     20.37 7.2029e+12
    20.383 7.2036e+12
    20.395 7.2044e+12
    20.407 7.2052e+12
     20.42  7.206e+12
    20.432 7.2067e+12
    20.445 7.2075e+12
    20.457 7.2083e+12
    20.469  7.209e+12
    20.482 7.2098e+12
    20.494 7.2106e+12
    20.507 7.2114e+12
    20.519 7.2121e+12
    20.531 7.2129e+12
    20.544 7.2137e+12
    20.556 7.2144e+12
    20.569 7.2152e+12
    20.581  7.216e+12
    20.593 7.2167e+12
    20.606 7.2175e+12
    20.618 7.2183e+12
     20.63  7.219e+12
    20.643 7.2198e+12
    20.655 7.2205e+12
    20.668 7.2213e+12
     20.68 7.2221e+12
    20.692 7.2228e+12
    20.705 7.2236e+12
    20.717 7.2244e+12
     20.73 7.2251e+12
    20.742 7.2259e+12
    20.754 7.2266e+12
    20.767 7.2274e+12
    20.779 7.2281e+12
    20.792 7.2289e+12
    20.804 7.2296e+12
    20.816 7.2304e+12
    20.829 7.2311e+12
    20.841 7.2319e+12
    20.854 7.2326e+12
    20.866 7.2334e+12
    20.878 7.2341e+12
    20.891 7.2349e+12
    20.903 7.2356e+12
    20.916 7.2364e+12
    20.928 7.2371e+12
     20.94 7.2379e+12
    20.953 7.2386e+12
    20.965 7.2394e+12
    20.978 7.2401e+12
     20.99 7.2408e+12
    21.002 7.2416e+12
    21.015 7.2423e+12
    21.027 7.2431e+12
     21.04 7.2438e+12
    21.052 7.2446e+12
    21.064 7.2453e+12
    21.077  7.246e+12
    21.089 7.2468e+12
    21.102 7.2475e+12
    21.114 7.2482e+12
    21.126  7.249e+12
    21.139 7.2497e+12
    21.151 7.2505e+12
    21.164 7.2512e+12
    21.176 7.2519e+12
    21.188 7.2527e+12
    21.201 7.2534e+12
    21.213 7.2541e+12
    21.226 7.2549e+12
    21.238 7.2556e+12
     21.25 7.2563e+12
    21.263  7.257e+12
    21.275 7.2577e+12
    21.288 7.2585e+12
      21.3 7.2592e+12
    21.312 7.2599e+12
    21.325 7.2606e+12
    21.337 7.2614e+12
     21.35 7.2621e+12
    21.362 7.2629e+12
    21.374 7.2635e+12
    21.387 7.2643e+12
    21.399  7.265e+12
    21.412 7.2657e+12
    21.424 7.2664e+12
    21.436 7.2672e+12
    21.449 7.2679e+12
    21.461 7.2686e+12
    21.474 7.2693e+12
    21.486   7.27e+12
    21.498 7.2708e+12
    21.511 7.2715e+12
    21.523 7.2722e+12
    21.536 7.2729e+12
    21.548 7.2736e+12
     21.56 7.2743e+12
    21.573  7.275e+12
    21.585 7.2758e+12
    21.598 7.2765e+12
     21.61 7.2772e+12
    21.622 7.2779e+12
    21.635 7.2786e+12
    21.647 7.2793e+12
     21.66   7.28e+12
    21.672 7.2807e+12
    21.684 7.2814e+12
    21.697 7.2821e+12
    21.709 7.2828e+12
    21.722 7.2835e+12
    21.734 7.2843e+12
    21.746 7.2849e+12
    21.759 7.2857e+12
    21.771 7.2863e+12
    21.784  7.287e+12
    21.796 7.2877e+12
    21.808 7.2885e+12
    21.821 7.2891e+12
    21.833 7.2899e+12
    21.846 7.2906e+12
    21.858 7.2912e+12
     21.87  7.292e+12
    21.883 7.2927e+12
    21.895 7.2933e+12
    21.908 7.2941e+12
     21.92 7.2947e+12
    21.932 7.2954e+12
    21.945 7.2961e+12
    21.957 7.2968e+12
    21.969 7.2975e+12
    21.982 7.2982e+12
    21.994 7.2989e+12
    22.007 7.2996e+12
    22.019 7.3003e+12
    22.031  7.301e+12
    22.044 7.3017e+12
    22.056 7.3024e+12
    22.069  7.303e+12
    22.081 7.3037e+12
    22.093 7.3044e+12
    22.106 7.3051e+12
    22.118 7.3058e+12
    22.131 7.3065e+12
    22.143 7.3072e+12
    22.155 7.3078e+12
    22.168 7.3085e+12
     22.18 7.3092e+12
    22.193 7.3099e+12
    22.205 7.3106e+12
    22.217 7.3112e+12
     22.23 7.3119e+12
    22.242 7.3126e+12
    22.255 7.3133e+12
    22.267 7.3139e+12
    22.279 7.3146e+12
    22.292 7.3153e+12
    22.304  7.316e+12
    22.317 7.3167e+12
    22.329 7.3173e+12
    22.341  7.318e+12
    22.354 7.3187e+12
    22.366 7.3194e+12
    22.379   7.32e+12
    22.391 7.3207e+12
    22.403 7.3214e+12
    22.416  7.322e+12
    22.428 7.3227e+12
    22.441 7.3234e+12
    22.453 7.3241e+12
    22.465 7.3247e+12
    22.478 7.3254e+12
     22.49 7.3261e+12
    22.503 7.3267e+12
    22.515 7.3274e+12
    22.527 7.3281e+12
     22.54 7.3287e+12
    22.552 7.3294e+12
    22.565 7.3301e+12
    22.577 7.3307e+12
    22.589 7.3314e+12
    22.602  7.332e+12
    22.614 7.3327e+12
    22.627 7.3334e+12
    22.639  7.334e+12
    22.651 7.3347e+12
    22.664 7.3354e+12
    22.676  7.336e+12
    22.689 7.3367e+12
    22.701 7.3374e+12
    22.713  7.338e+12
    22.726 7.3387e+12
    22.738 7.3393e+12
    22.751   7.34e+12
    22.763 7.3406e+12
    22.775 7.3413e+12
    22.788 7.3419e+12
      22.8 7.3426e+12
    22.813 7.3432e+12
    22.825 7.3439e+12
    22.837 7.3445e+12
     22.85 7.3452e+12
    22.862 7.3458e+12
    22.875 7.3465e+12
    22.887 7.3472e+12
    22.899 7.3478e+12
    22.912 7.3484e+12
    22.924 7.3491e+12
    22.937 7.3497e+12
    22.949 7.3504e+12
    22.961  7.351e+12
    22.974 7.3517e+12
    22.986 7.3523e+12
    22.999  7.353e+12
    23.011 7.3536e+12
    23.023 7.3542e+12
    23.036 7.3549e+12
    23.048 7.3555e+12
    23.061 7.3562e+12
    23.073 7.3568e+12
    23.085 7.3575e+12
    23.098 7.3582e+12
     23.11 7.3588e+12
    23.123 7.3594e+12
    23.135   7.36e+12
    23.147 7.3607e+12
     23.16 7.3613e+12
    23.172 7.3619e+12
    23.185 7.3626e+12
    23.197 7.3632e+12
    23.209 7.3638e+12
    23.222 7.3645e+12
    23.234 7.3651e+12
    23.247 7.3657e+12
    23.259 7.3664e+12
    23.271  7.367e+12
    23.284 7.3676e+12
    23.296 7.3683e+12
    23.308 7.3689e+12
    23.321 7.3695e+12
    23.333 7.3702e+12
    23.346 7.3708e+12
    23.358 7.3714e+12
     23.37 7.3721e+12
    23.383 7.3727e+12
    23.395 7.3733e+12
    23.408 7.3739e+12
     23.42 7.3746e+12
    23.432 7.3752e+12
    23.445 7.3758e+12
    23.457 7.3765e+12
     23.47 7.3771e+12
    23.482 7.3777e+12
    23.494 7.3783e+12
    23.507 7.3789e+12
    23.519 7.3796e+12
    23.532 7.3802e+12
    23.544 7.3808e+12
    23.556 7.3814e+12
    23.569 7.3821e+12
    23.581 7.3827e+12
    23.594 7.3833e+12
    23.606 7.3839e+12
    23.618 7.3845e+12
    23.631 7.3852e+12
    23.643 7.3858e+12
    23.656 7.3864e+12
    23.668  7.387e+12
     23.68 7.3876e+12
    23.693 7.3882e+12
    23.705 7.3889e+12
    23.718 7.3895e+12
     23.73 7.3901e+12
    23.742 7.3907e+12
    23.755 7.3913e+12
    23.767 7.3919e+12
     23.78 7.3925e+12
    23.792 7.3932e+12
    23.804 7.3937e+12
    23.817 7.3944e+12
    23.829  7.395e+12
    23.842 7.3956e+12
    23.854 7.3962e+12
    23.866 7.3968e+12
    23.879 7.3974e+12
    23.891  7.398e+12
    23.904 7.3986e+12
    23.916 7.3992e+12
    23.928 7.3998e+12
    23.941 7.4004e+12
    23.953  7.401e+12
    23.966 7.4016e+12
    23.978 7.4023e+12
     23.99 7.4029e+12
    24.003 7.4034e+12
    24.015 7.4041e+12
    24.028 7.4046e+12
     24.04 7.4052e+12
    24.052 7.4059e+12
    24.065 7.4065e+12
    24.077 7.4071e+12
     24.09 7.4076e+12
    24.102 7.4083e+12
    24.114 7.4089e+12
    24.127 7.4094e+12
    24.139   7.41e+12
    24.152 7.4107e+12
    24.164 7.4112e+12
    24.176 7.4118e+12
    24.189 7.4125e+12
    24.201  7.413e+12
    24.214 7.4136e+12
    24.226 7.4142e+12
    24.238 7.4148e+12
    24.251 7.4154e+12
    24.263  7.416e+12
    24.276 7.4166e+12
    24.288 7.4172e+12
      24.3 7.4178e+12
    24.313 7.4184e+12
    24.325  7.419e+12
    24.338 7.4196e+12
     24.35 7.4201e+12
    24.362 7.4207e+12
    24.375 7.4213e+12
    24.387 7.4219e+12
      24.4 7.4225e+12
    24.412 7.4231e+12
    24.424 7.4237e+12
    24.437 7.4242e+12
    24.449 7.4248e+12
    24.462 7.4254e+12
    24.474  7.426e+12
    24.486 7.4266e+12
    24.499 7.4272e+12
    24.511 7.4278e+12
    24.524 7.4283e+12
    24.536 7.4289e+12
    24.548 7.4295e+12
    24.561 7.4301e+12
    24.573 7.4307e+12
    24.585 7.4313e+12
    24.598 7.4318e+12
     24.61 7.4324e+12
    24.623  7.433e+12
    24.635 7.4335e+12
    24.647 7.4342e+12
     24.66 7.4347e+12
    24.672 7.4353e+12
    24.685 7.4359e+12
    24.697 7.4364e+12
    24.709  7.437e+12
    24.722 7.4376e+12
    24.734 7.4382e+12
    24.747 7.4388e+12
    24.759 7.4393e+12
    24.771 7.4399e+12
    24.784 7.4405e+12
    24.796 7.4411e+12
    24.809 7.4416e+12
    24.821 7.4422e+12
    24.833 7.4428e+12
    24.846 7.4433e+12
    24.858 7.4439e+12
    24.871 7.4445e+12
    24.883 7.4451e+12
    24.895 7.4456e+12
    24.908 7.4462e+12
     24.92 7.4467e+12
    24.933 7.4473e+12
    24.945 7.4479e+12
    24.957 7.4484e+12
     24.97  7.449e+12
    24.982 7.4496e+12
    24.995 7.4501e+12
    25.007 7.4507e+12
    25.019 7.4513e+12
    25.032 7.4518e+12
    25.044 7.4524e+12
    25.057  7.453e+12
    25.069 7.4535e+12
    25.081 7.4541e+12
    25.094 7.4546e+12
    25.106 7.4552e+12
    25.119 7.4558e+12
    25.131 7.4563e+12
    25.143 7.4569e+12
    25.156 7.4575e+12
    25.168  7.458e+12
    25.181 7.4585e+12
    25.193 7.4591e+12
    25.205 7.4597e+12
    25.218 7.4602e+12
     25.23 7.4608e+12
    25.243 7.4614e+12
    25.255 7.4619e+12
    25.267 7.4625e+12
     25.28  7.463e+12
    25.292 7.4636e+12
    25.305 7.4641e+12
    25.317 7.4647e+12
    25.329 7.4652e+12
    25.342 7.4658e+12
    25.354 7.4663e+12
    25.367 7.4669e+12
    25.379 7.4674e+12
    25.391  7.468e+12
    25.404 7.4685e+12
    25.416 7.4691e+12
    25.429 7.4696e+12
    25.441 7.4702e+12
    25.453 7.4707e+12
    25.466 7.4713e+12
    25.478 7.4718e+12
    25.491 7.4724e+12
    25.503 7.4729e+12
    25.515 7.4735e+12
    25.528  7.474e+12
     25.54 7.4746e+12
    25.553 7.4751e+12
    25.565 7.4757e+12
    25.577 7.4762e+12
     25.59 7.4767e+12
    25.602 7.4773e+12
    25.615 7.4778e+12
    25.627 7.4784e+12
    25.639 7.4789e+12
    25.652 7.4794e+12
    25.664   7.48e+12
    25.677 7.4805e+12
    25.689 7.4811e+12
    25.701 7.4816e+12
    25.714 7.4821e+12
    25.726 7.4827e+12
    25.739 7.4832e+12
    25.751 7.4838e+12
    25.763 7.4843e+12
    25.776 7.4849e+12
    25.788 7.4854e+12
    25.801 7.4859e+12
    25.813 7.4865e+12
    25.825  7.487e+12
    25.838 7.4875e+12
     25.85 7.4881e+12
    25.863 7.4886e+12
    25.875 7.4892e+12
    25.887 7.4897e+12
      25.9 7.4902e+12
    25.912 7.4908e+12
    25.924 7.4913e+12
    25.937 7.4918e+12
    25.949 7.4923e+12
    25.962 7.4929e+12
    25.974 7.4934e+12
    25.986  7.494e+12
    25.999 7.4945e+12
    26.011  7.495e+12
    26.024 7.4955e+12
    26.036 7.4961e+12
    26.048 7.4966e+12
    26.061 7.4971e+12
    26.073 7.4977e+12
    26.086 7.4982e+12
    26.098 7.4987e+12
     26.11 7.4992e+12
    26.123 7.4997e+12
    26.135 7.5003e+12
    26.148 7.5008e+12
     26.16 7.5013e+12
    26.172 7.5018e+12
    26.185 7.5024e+12
    26.197 7.5029e+12
     26.21 7.5034e+12
    26.222 7.5039e+12
    26.234 7.5045e+12
    26.247  7.505e+12
    26.259 7.5055e+12
    26.272  7.506e+12
    26.284 7.5065e+12
    26.296 7.5071e+12
    26.309 7.5076e+12
    26.321 7.5081e+12
    26.334 7.5086e+12
    26.346 7.5092e+12
    26.358 7.5097e+12
    26.371 7.5102e+12
    26.383 7.5107e+12
    26.396 7.5112e+12
    26.408 7.5117e+12
     26.42 7.5123e+12
    26.433 7.5128e+12
    26.445 7.5133e+12
    26.458 7.5138e+12
     26.47 7.5143e+12
    26.482 7.5148e+12
    26.495 7.5154e+12
    26.507 7.5159e+12
     26.52 7.5164e+12
    26.532 7.5169e+12
    26.544 7.5174e+12
    26.557 7.5179e+12
    26.569 7.5184e+12
    26.582 7.5189e+12
    26.594 7.5195e+12
    26.606   7.52e+12
    26.619 7.5205e+12
    26.631  7.521e+12
    26.644 7.5215e+12
    26.656  7.522e+12
    26.668 7.5225e+12
    26.681  7.523e+12
    26.693 7.5235e+12
    26.706 7.5241e+12
    26.718 7.5245e+12
     26.73 7.5251e+12
    26.743 7.5255e+12
    26.755  7.526e+12
    26.768 7.5265e+12
     26.78  7.527e+12
    26.792 7.5276e+12
    26.805 7.5281e+12
    26.817 7.5286e+12
     26.83 7.5291e+12
    26.842 7.5296e+12
    26.854 7.5301e+12
    26.867 7.5306e+12
    26.879 7.5311e+12
    26.892 7.5316e+12
    26.904 7.5321e+12
    26.916 7.5326e+12
    26.929 7.5331e+12
    26.941 7.5336e+12
    26.954 7.5341e+12
    26.966 7.5346e+12
    26.978 7.5351e+12
    26.991 7.5356e+12
    27.003 7.5361e+12
    27.016 7.5366e+12
    27.028 7.5371e+12
     27.04 7.5376e+12
    27.053 7.5381e+12
    27.065 7.5386e+12
    27.078 7.5391e+12
     27.09 7.5396e+12
    27.102 7.5401e+12
    27.115 7.5406e+12
    27.127 7.5411e+12
     27.14 7.5416e+12
    27.152 7.5421e+12
    27.164 7.5426e+12
    27.177 7.5431e+12
    27.189 7.5435e+12
    27.202  7.544e+12
    27.214 7.5445e+12
    27.226  7.545e+12
    27.239 7.5455e+12
    27.251  7.546e+12
    27.263 7.5465e+12
    27.276 7.5469e+12
    27.288 7.5475e+12
    27.301  7.548e+12
    27.313 7.5485e+12
    27.325 7.5489e+12
    27.338 7.5494e+12
     27.35 7.5499e+12
    27.363 7.5504e+12
    27.375 7.5509e+12
    27.387 7.5514e+12
      27.4 7.5518e+12
    27.412 7.5523e+12
    27.425 7.5528e+12
    27.437 7.5533e+12
    27.449 7.5538e+12
    27.462 7.5543e+12
    27.474 7.5548e+12
    27.487 7.5552e+12
    27.499 7.5558e+12
    27.511 7.5562e+12
    27.524 7.5567e+12
    27.536 7.5572e+12
    27.549 7.5577e+12
    27.561 7.5582e+12
    27.573 7.5586e+12
    27.586 7.5591e+12
    27.598 7.5596e+12
    27.611 7.5601e+12
    27.623 7.5606e+12
    27.635  7.561e+12
    27.648 7.5615e+12
     27.66  7.562e+12
    27.673 7.5625e+12
    27.685  7.563e+12
    27.697 7.5634e+12
     27.71 7.5639e+12
    27.722 7.5644e+12
    27.735 7.5649e+12
    27.747 7.5653e+12
    27.759 7.5658e+12
    27.772 7.5663e+12
    27.784 7.5668e+12
    27.797 7.5672e+12
    27.809 7.5677e+12
    27.821 7.5682e+12
    27.834 7.5687e+12
    27.846 7.5691e+12
    27.859 7.5696e+12
    27.871 7.5701e+12
    27.883 7.5705e+12
    27.896  7.571e+12
    27.908 7.5715e+12
    27.921  7.572e+12
    27.933 7.5725e+12
    27.945 7.5729e+12
    27.958 7.5734e+12
     27.97 7.5738e+12
    27.983 7.5743e+12
    27.995 7.5748e+12
    28.007 7.5753e+12
     28.02 7.5758e+12
    28.032 7.5762e+12
    28.045 7.5767e+12
    28.057 7.5772e+12
    28.069 7.5776e+12
    28.082 7.5781e+12
    28.094 7.5786e+12
    28.107  7.579e+12
    28.119 7.5795e+12
    28.131 7.5799e+12
    28.144 7.5804e+12
    28.156 7.5809e+12
    28.169 7.5813e+12
    28.181 7.5818e+12
    28.193 7.5823e+12
    28.206 7.5828e+12
    28.218 7.5832e+12
    28.231 7.5837e+12
    28.243 7.5841e+12
    28.255 7.5846e+12
    28.268 7.5851e+12
     28.28 7.5855e+12
    28.293  7.586e+12
    28.305 7.5864e+12
    28.317 7.5869e+12
     28.33 7.5874e+12
    28.342 7.5878e+12
    28.355 7.5883e+12
    28.367 7.5887e+12
    28.379 7.5892e+12
    28.392 7.5897e+12
    28.404 7.5901e+12
    28.417 7.5906e+12
    28.429  7.591e+12
    28.441 7.5915e+12
    28.454  7.592e+12
    28.466 7.5924e+12
    28.479 7.5929e+12
    28.491 7.5933e+12
    28.503 7.5938e+12
    28.516 7.5942e+12
    28.528 7.5947e+12
    28.541 7.5952e+12
    28.553 7.5956e+12
    28.565  7.596e+12
    28.578 7.5965e+12
     28.59  7.597e+12
    28.602 7.5974e+12
    28.615 7.5979e+12
    28.627 7.5983e+12
     28.64 7.5988e+12
    28.652 7.5992e+12
    28.664 7.5997e+12
    28.677 7.6001e+12
    28.689 7.6006e+12
    28.702  7.601e+12
    28.714 7.6015e+12
    28.726 7.6019e+12
    28.739 7.6024e+12
    28.751 7.6028e+12
    28.764 7.6033e+12
    28.776 7.6037e+12
    28.788 7.6042e+12
    28.801 7.6046e+12
    28.813 7.6051e+12
    28.826 7.6055e+12
    28.838  7.606e+12
     28.85 7.6064e+12
    28.863 7.6069e+12
    28.875 7.6073e+12
    28.888 7.6077e+12
      28.9 7.6082e+12
    28.912 7.6087e+12
    28.925 7.6091e+12
    28.937 7.6095e+12
     28.95   7.61e+12
    28.962 7.6104e+12
    28.974 7.6109e+12
    28.987 7.6113e+12
    28.999 7.6117e+12
    29.012 7.6122e+12
    29.024 7.6126e+12
    29.036 7.6131e+12
    29.049 7.6135e+12
    29.061  7.614e+12
    29.074 7.6144e+12
    29.086 7.6148e+12
    29.098 7.6153e+12
    29.111 7.6157e+12
    29.123 7.6161e+12
    29.136 7.6166e+12
    29.148  7.617e+12
     29.16 7.6175e+12
    29.173 7.6179e+12
    29.185 7.6184e+12
    29.198 7.6188e+12
     29.21 7.6192e+12
    29.222 7.6197e+12
    29.235 7.6201e+12
    29.247 7.6206e+12
     29.26  7.621e+12
    29.272 7.6214e+12
    29.284 7.6219e+12
    29.297 7.6223e+12
    29.309 7.6227e+12
    29.322 7.6232e+12
    29.334 7.6236e+12
    29.346  7.624e+12
    29.359 7.6245e+12
    29.371 7.6249e+12
    29.384 7.6254e+12
    29.396 7.6258e+12
    29.408 7.6262e+12
    29.421 7.6267e+12
    29.433 7.6271e+12
    29.446 7.6275e+12
    29.458 7.6279e+12
     29.47 7.6284e+12
    29.483 7.6288e+12
    29.495 7.6292e+12
    29.508 7.6296e+12
     29.52 7.6301e+12
    29.532 7.6305e+12
    29.545 7.6309e+12
    29.557 7.6314e+12
     29.57 7.6318e+12
    29.582 7.6322e+12
    29.594 7.6327e+12
    29.607 7.6331e+12
    29.619 7.6335e+12
    29.632  7.634e+12
    29.644 7.6344e+12
    29.656 7.6348e+12
    29.669 7.6352e+12
    29.681 7.6357e+12
    29.694 7.6361e+12
    29.706 7.6365e+12
    29.718 7.6369e+12
    29.731 7.6373e+12
    29.743 7.6378e+12
    29.756 7.6382e+12
    29.768 7.6386e+12
     29.78  7.639e+12
    29.793 7.6395e+12
    29.805 7.6399e+12
    29.818 7.6403e+12
     29.83 7.6408e+12
    29.842 7.6412e+12
    29.855 7.6416e+12
    29.867  7.642e+12
     29.88 7.6424e+12
    29.892 7.6429e+12
    29.904 7.6433e+12
    29.917 7.6437e+12
    29.929 7.6441e+12
    29.941 7.6445e+12
    29.954  7.645e+12
    29.966 7.6454e+12
    29.979 7.6458e+12
    29.991 7.6462e+12
    30.003 7.6466e+12
