RRKM rate, sf=0.970, S*=-15.40, E0=1.35 and Delta=1.32
   En (eV)    k (s-1)
         0          0
  0.012398          0
  0.024796          0
  0.037194          0
  0.049593          0
  0.061991          0
  0.074389          0
  0.086787          0
  0.099185          0
   0.11158          0
   0.12398          0
   0.13638          0
   0.14878          0
   0.16118          0
   0.17357          0
   0.18597          0
   0.19837          0
   0.21077          0
   0.22317          0
   0.23556          0
   0.24796          0
   0.26036          0
   0.27276          0
   0.28516          0
   0.29756          0
   0.30995          0
   0.32235          0
   0.33475          0
   0.34715          0
   0.35955          0
   0.37194          0
   0.38434          0
   0.39674          0
   0.40914          0
   0.42154          0
   0.43393          0
   0.44633          0
   0.45873          0
   0.47113          0
   0.48353          0
   0.49593          0
   0.50832          0
   0.52072          0
   0.53312          0
   0.54552          0
   0.55792          0
   0.57031          0
   0.58271          0
   0.59511          0
   0.60751          0
   0.61991          0
    0.6323          0
    0.6447          0
    0.6571          0
    0.6695          0
    0.6819          0
    0.6943          0
   0.70669          0
   0.71909          0
   0.73149          0
   0.74389          0
   0.75629          0
   0.76868          0
   0.78108          0
   0.79348          0
   0.80588          0
   0.81828          0
   0.83067          0
   0.84307          0
   0.85547          0
   0.86787          0
   0.88027          0
   0.89267          0
   0.90506          0
   0.91746          0
   0.92986          0
   0.94226          0
   0.95466          0
   0.96705          0
   0.97945          0
   0.99185          0
    1.0042          0
    1.0166          0
     1.029          0
    1.0414          0
    1.0538          0
    1.0662          0
    1.0786          0
     1.091          0
    1.1034          0
    1.1158          0
    1.1282          0
    1.1406          0
     1.153          0
    1.1654          0
    1.1778          0
    1.1902          0
    1.2026          0
     1.215          0
    1.2274          0
    1.2398          0
    1.2522          0
    1.2646          0
     1.277          0
    1.2894          0
    1.3018          0
    1.3142          0
    1.3266          0
     1.339          0
    1.3514          0
    1.3638 0.00062409
    1.3762  0.0015369
    1.3886  0.0033674
     1.401  0.0058846
    1.4134   0.010542
    1.4258   0.017603
    1.4382   0.028252
    1.4506   0.043113
     1.463   0.064222
    1.4754   0.094176
    1.4878    0.13507
    1.5002     0.1902
    1.5126     0.2628
     1.525    0.35889
    1.5374    0.48389
    1.5498    0.64522
    1.5622    0.85027
    1.5746     1.1099
     1.587     1.4361
    1.5994     1.8432
    1.6118     2.3471
    1.6242     2.9667
    1.6366     3.7249
     1.649     4.6474
    1.6613     5.7641
    1.6737     7.1083
    1.6861     8.7193
    1.6985     10.641
    1.7109     12.926
    1.7233     15.629
    1.7357     18.815
    1.7481     22.557
    1.7605     26.937
    1.7729     32.046
    1.7853     37.986
    1.7977     44.871
    1.8101     52.828
    1.8225     61.998
    1.8349     72.536
    1.8473     84.614
    1.8597     98.424
    1.8721     114.17
    1.8845     132.09
    1.8969     152.43
    1.9093     175.47
    1.9217     201.51
    1.9341     230.89
    1.9465     263.95
    1.9589     301.09
    1.9713     342.74
    1.9837     389.36
    1.9961     441.45
    2.0085     499.54
    2.0209     564.23
    2.0333     636.15
    2.0457     715.97
    2.0581     804.44
    2.0705     902.33
    2.0829     1010.5
    2.0953     1129.8
    2.1077     1261.3
    2.1201     1406.1
    2.1325     1565.1
    2.1449     1739.6
    2.1573     1930.9
    2.1697     2140.4
    2.1821     2369.4
    2.1945     2619.6
    2.2069     2892.5
    2.2193     3189.9
    2.2317     3513.7
    2.2441     3865.7
    2.2565     4248.2
    2.2689     4663.3
    2.2813     5113.3
    2.2937     5600.6
    2.3061     6127.9
    2.3185       6698
    2.3308     7313.7
    2.3432     7978.1
    2.3556     8694.4
     2.368       9466
    2.3804      10296
    2.3928      11190
    2.4052      12149
    2.4176      13180
      2.43      14285
    2.4424      15470
    2.4548      16740
    2.4672      18099
    2.4796      19553
     2.492      21106
    2.5044      22766
    2.5168      24538
    2.5292      26428
    2.5416      28443
     2.554      30589
    2.5664      32874
    2.5788      35305
    2.5912      37891
    2.6036      40638
     2.616      43556
    2.6284      46653
    2.6408      49939
    2.6532      53422
    2.6656      57114
     2.678      61023
    2.6904      65161
    2.7028      69539
    2.7152      74167
    2.7276      79059
      2.74      84226
    2.7524      89682
    2.7648      95439
    2.7772 1.0151e+05
    2.7896 1.0791e+05
     2.802 1.1466e+05
    2.8144 1.2176e+05
    2.8268 1.2924e+05
    2.8392 1.3711e+05
    2.8516 1.4539e+05
     2.864  1.541e+05
    2.8764 1.6325e+05
    2.8888 1.7286e+05
    2.9012 1.8295e+05
    2.9136 1.9354e+05
     2.926 2.0466e+05
    2.9384 2.1631e+05
    2.9508 2.2853e+05
    2.9632 2.4134e+05
    2.9756 2.5475e+05
     2.988  2.688e+05
    3.0003 2.8351e+05
    3.0127 2.9889e+05
    3.0251 3.1499e+05
    3.0375 3.3182e+05
    3.0499 3.4941e+05
    3.0623  3.678e+05
    3.0747   3.87e+05
    3.0871 4.0705e+05
    3.0995 4.2798e+05
    3.1119 4.4982e+05
    3.1243  4.726e+05
    3.1367 4.9636e+05
    3.1491 5.2113e+05
    3.1615 5.4694e+05
    3.1739 5.7383e+05
    3.1863 6.0184e+05
    3.1987   6.31e+05
    3.2111 6.6136e+05
    3.2235 6.9294e+05
    3.2359  7.258e+05
    3.2483 7.5998e+05
    3.2607 7.9551e+05
    3.2731 8.3244e+05
    3.2855 8.7082e+05
    3.2979 9.1068e+05
    3.3103 9.5208e+05
    3.3227 9.9507e+05
    3.3351 1.0397e+06
    3.3475  1.086e+06
    3.3599  1.134e+06
    3.3723 1.1838e+06
    3.3847 1.2355e+06
    3.3971  1.289e+06
    3.4095 1.3446e+06
    3.4219 1.4021e+06
    3.4343 1.4616e+06
    3.4467 1.5233e+06
    3.4591 1.5872e+06
    3.4715 1.6533e+06
    3.4839 1.7218e+06
    3.4963 1.7926e+06
    3.5087 1.8658e+06
    3.5211 1.9416e+06
    3.5335 2.0199e+06
    3.5459 2.1009e+06
    3.5583 2.1846e+06
    3.5707  2.271e+06
    3.5831 2.3604e+06
    3.5955 2.4527e+06
    3.6079 2.5479e+06
    3.6203 2.6463e+06
    3.6327 2.7479e+06
    3.6451 2.8527e+06
    3.6574 2.9608e+06
    3.6698 3.0724e+06
    3.6822 3.1874e+06
    3.6946 3.3061e+06
     3.707 3.4284e+06
    3.7194 3.5546e+06
    3.7318 3.6845e+06
    3.7442 3.8185e+06
    3.7566 3.9564e+06
     3.769 4.0986e+06
    3.7814  4.245e+06
    3.7938 4.3957e+06
    3.8062 4.5509e+06
    3.8186 4.7106e+06
     3.831  4.875e+06
    3.8434 5.0441e+06
    3.8558 5.2181e+06
    3.8682 5.3971e+06
    3.8806 5.5812e+06
     3.893 5.7705e+06
    3.9054 5.9651e+06
    3.9178 6.1652e+06
    3.9302 6.3708e+06
    3.9426 6.5821e+06
     3.955 6.7993e+06
    3.9674 7.0222e+06
    3.9798 7.2514e+06
    3.9922 7.4866e+06
    4.0046 7.7282e+06
     4.017 7.9762e+06
    4.0294 8.2308e+06
    4.0418 8.4921e+06
    4.0542 8.7603e+06
    4.0666 9.0355e+06
     4.079 9.3178e+06
    4.0914 9.6074e+06
    4.1038 9.9044e+06
    4.1162 1.0209e+07
    4.1286 1.0521e+07
     4.141 1.0841e+07
    4.1534  1.117e+07
    4.1658 1.1506e+07
    4.1782 1.1851e+07
    4.1906 1.2204e+07
     4.203 1.2566e+07
    4.2154 1.2936e+07
    4.2278 1.3316e+07
    4.2402 1.3705e+07
    4.2526 1.4103e+07
     4.265 1.4511e+07
    4.2774 1.4928e+07
    4.2898 1.5355e+07
    4.3022 1.5792e+07
    4.3146  1.624e+07
    4.3269 1.6698e+07
    4.3393 1.7166e+07
    4.3517 1.7645e+07
    4.3641 1.8135e+07
    4.3765 1.8636e+07
    4.3889 1.9149e+07
    4.4013 1.9673e+07
    4.4137 2.0209e+07
    4.4261 2.0757e+07
    4.4385 2.1317e+07
    4.4509 2.1889e+07
    4.4633 2.2474e+07
    4.4757 2.3072e+07
    4.4881 2.3682e+07
    4.5005 2.4306e+07
    4.5129 2.4943e+07
    4.5253 2.5594e+07
    4.5377 2.6259e+07
    4.5501 2.6937e+07
    4.5625  2.763e+07
    4.5749 2.8338e+07
    4.5873  2.906e+07
    4.5997 2.9798e+07
    4.6121  3.055e+07
    4.6245 3.1318e+07
    4.6369 3.2102e+07
    4.6493 3.2902e+07
    4.6617 3.3717e+07
    4.6741 3.4549e+07
    4.6865 3.5399e+07
    4.6989 3.6264e+07
    4.7113 3.7147e+07
    4.7237 3.8048e+07
    4.7361 3.8966e+07
    4.7485 3.9902e+07
    4.7609 4.0857e+07
    4.7733  4.183e+07
    4.7857 4.2821e+07
    4.7981 4.3832e+07
    4.8105 4.4862e+07
    4.8229 4.5912e+07
    4.8353 4.6981e+07
    4.8477 4.8071e+07
    4.8601 4.9181e+07
    4.8725 5.0312e+07
    4.8849 5.1464e+07
    4.8973 5.2637e+07
    4.9097 5.3831e+07
    4.9221 5.5048e+07
    4.9345 5.6287e+07
    4.9469 5.7548e+07
    4.9593 5.8832e+07
    4.9717 6.0139e+07
     4.984  6.147e+07
    4.9964 6.2825e+07
    5.0088 6.4203e+07
    5.0212 6.5605e+07
    5.0336 6.7033e+07
     5.046 6.8485e+07
    5.0584 6.9963e+07
    5.0708 7.1466e+07
    5.0832 7.2995e+07
    5.0956 7.4551e+07
     5.108 7.6133e+07
    5.1204 7.7742e+07
    5.1328 7.9378e+07
    5.1452 8.1042e+07
    5.1576 8.2734e+07
      5.17 8.4455e+07
    5.1824 8.6204e+07
    5.1948 8.7981e+07
    5.2072 8.9789e+07
    5.2196 9.1626e+07
     5.232 9.3493e+07
    5.2444 9.5391e+07
    5.2568  9.732e+07
    5.2692 9.9279e+07
    5.2816 1.0127e+08
     5.294 1.0329e+08
    5.3064 1.0535e+08
    5.3188 1.0744e+08
    5.3312 1.0956e+08
    5.3436 1.1171e+08
     5.356  1.139e+08
    5.3684 1.1612e+08
    5.3808 1.1838e+08
    5.3932 1.2067e+08
    5.4056   1.23e+08
     5.418 1.2536e+08
    5.4304 1.2776e+08
    5.4428  1.302e+08
    5.4552 1.3267e+08
    5.4676 1.3518e+08
      5.48 1.3773e+08
    5.4924 1.4032e+08
    5.5048 1.4294e+08
    5.5172 1.4561e+08
    5.5296 1.4831e+08
     5.542 1.5105e+08
    5.5544 1.5384e+08
    5.5668 1.5666e+08
    5.5792 1.5953e+08
    5.5916 1.6243e+08
     5.604 1.6538e+08
    5.6164 1.6837e+08
    5.6288 1.7141e+08
    5.6412 1.7448e+08
    5.6535 1.7761e+08
    5.6659 1.8077e+08
    5.6783 1.8398e+08
    5.6907 1.8724e+08
    5.7031 1.9054e+08
    5.7155 1.9388e+08
    5.7279 1.9728e+08
    5.7403 2.0072e+08
    5.7527  2.042e+08
    5.7651 2.0774e+08
    5.7775 2.1132e+08
    5.7899 2.1495e+08
    5.8023 2.1863e+08
    5.8147 2.2237e+08
    5.8271 2.2615e+08
    5.8395 2.2998e+08
    5.8519 2.3386e+08
    5.8643  2.378e+08
    5.8767 2.4178e+08
    5.8891 2.4582e+08
    5.9015 2.4991e+08
    5.9139 2.5406e+08
    5.9263 2.5826e+08
    5.9387 2.6251e+08
    5.9511 2.6682e+08
    5.9635 2.7119e+08
    5.9759 2.7561e+08
    5.9883 2.8009e+08
    6.0007 2.8462e+08
    6.0131 2.8921e+08
    6.0255 2.9386e+08
    6.0379 2.9857e+08
    6.0503 3.0334e+08
    6.0627 3.0817e+08
    6.0751 3.1305e+08
    6.0875   3.18e+08
    6.0999 3.2301e+08
    6.1123 3.2808e+08
    6.1247 3.3322e+08
    6.1371 3.3841e+08
    6.1495 3.4367e+08
    6.1619   3.49e+08
    6.1743 3.5438e+08
    6.1867 3.5983e+08
    6.1991 3.6536e+08
    6.2115 3.7094e+08
    6.2239 3.7659e+08
    6.2363 3.8231e+08
    6.2487 3.8809e+08
    6.2611 3.9395e+08
    6.2735 3.9987e+08
    6.2859 4.0586e+08
    6.2983 4.1192e+08
    6.3107 4.1805e+08
     6.323 4.2425e+08
    6.3354 4.3053e+08
    6.3478 4.3687e+08
    6.3602 4.4329e+08
    6.3726 4.4979e+08
     6.385 4.5635e+08
    6.3974 4.6299e+08
    6.4098 4.6971e+08
    6.4222  4.765e+08
    6.4346 4.8336e+08
     6.447 4.9031e+08
    6.4594 4.9733e+08
    6.4718 5.0443e+08
    6.4842  5.116e+08
    6.4966 5.1886e+08
     6.509  5.262e+08
    6.5214 5.3361e+08
    6.5338 5.4111e+08
    6.5462 5.4869e+08
    6.5586 5.5634e+08
     6.571 5.6409e+08
    6.5834 5.7191e+08
    6.5958 5.7983e+08
    6.6082 5.8782e+08
    6.6206  5.959e+08
     6.633 6.0406e+08
    6.6454 6.1231e+08
    6.6578 6.2065e+08
    6.6702 6.2908e+08
    6.6826 6.3759e+08
     6.695 6.4619e+08
    6.7074 6.5488e+08
    6.7198 6.6366e+08
    6.7322 6.7253e+08
    6.7446 6.8149e+08
     6.757 6.9055e+08
    6.7694  6.997e+08
    6.7818 7.0894e+08
    6.7942 7.1827e+08
    6.8066  7.277e+08
     6.819 7.3722e+08
    6.8314 7.4684e+08
    6.8438 7.5655e+08
    6.8562 7.6636e+08
    6.8686 7.7627e+08
     6.881 7.8628e+08
    6.8934 7.9638e+08
    6.9058 8.0659e+08
    6.9182 8.1689e+08
    6.9306  8.273e+08
     6.943 8.3781e+08
    6.9554 8.4841e+08
    6.9678 8.5912e+08
    6.9801 8.6994e+08
    6.9925 8.8086e+08
    7.0049 8.9188e+08
    7.0173 9.0301e+08
    7.0297 9.1424e+08
    7.0421 9.2559e+08
    7.0545 9.3703e+08
    7.0669 9.4859e+08
    7.0793 9.6026e+08
    7.0917 9.7203e+08
    7.1041 9.8391e+08
    7.1165 9.9591e+08
    7.1289  1.008e+09
    7.1413 1.0202e+09
    7.1537 1.0326e+09
    7.1661  1.045e+09
    7.1785 1.0576e+09
    7.1909 1.0702e+09
    7.2033  1.083e+09
    7.2157 1.0959e+09
    7.2281 1.1089e+09
    7.2405 1.1221e+09
    7.2529 1.1353e+09
    7.2653 1.1487e+09
    7.2777 1.1622e+09
    7.2901 1.1758e+09
    7.3025 1.1895e+09
    7.3149 1.2034e+09
    7.3273 1.2174e+09
    7.3397 1.2315e+09
    7.3521 1.2457e+09
    7.3645   1.26e+09
    7.3769 1.2745e+09
    7.3893 1.2891e+09
    7.4017 1.3038e+09
    7.4141 1.3187e+09
    7.4265 1.3337e+09
    7.4389 1.3488e+09
    7.4513  1.364e+09
    7.4637 1.3794e+09
    7.4761 1.3949e+09
    7.4885 1.4105e+09
    7.5009 1.4262e+09
    7.5133 1.4421e+09
    7.5257 1.4582e+09
    7.5381 1.4743e+09
    7.5505 1.4906e+09
    7.5629  1.507e+09
    7.5753 1.5236e+09
    7.5877 1.5403e+09
    7.6001 1.5571e+09
    7.6125 1.5741e+09
    7.6249 1.5912e+09
    7.6373 1.6085e+09
    7.6496 1.6259e+09
     7.662 1.6434e+09
    7.6744 1.6611e+09
    7.6868 1.6789e+09
    7.6992 1.6969e+09
    7.7116  1.715e+09
     7.724 1.7332e+09
    7.7364 1.7516e+09
    7.7488 1.7701e+09
    7.7612 1.7888e+09
    7.7736 1.8077e+09
     7.786 1.8267e+09
    7.7984 1.8458e+09
    7.8108 1.8651e+09
    7.8232 1.8845e+09
    7.8356 1.9041e+09
     7.848 1.9238e+09
    7.8604 1.9437e+09
    7.8728 1.9637e+09
    7.8852 1.9839e+09
    7.8976 2.0043e+09
      7.91 2.0248e+09
    7.9224 2.0455e+09
    7.9348 2.0663e+09
    7.9472 2.0872e+09
    7.9596 2.1084e+09
     7.972 2.1297e+09
    7.9844 2.1511e+09
    7.9968 2.1727e+09
    8.0092 2.1945e+09
    8.0216 2.2164e+09
     8.034 2.2385e+09
    8.0464 2.2608e+09
    8.0588 2.2832e+09
    8.0712 2.3058e+09
    8.0836 2.3286e+09
     8.096 2.3515e+09
    8.1084 2.3746e+09
    8.1208 2.3978e+09
    8.1332 2.4213e+09
    8.1456 2.4448e+09
     8.158 2.4686e+09
    8.1704 2.4925e+09
    8.1828 2.5167e+09
    8.1952 2.5409e+09
    8.2076 2.5654e+09
      8.22   2.59e+09
    8.2324 2.6148e+09
    8.2448 2.6398e+09
    8.2572 2.6649e+09
    8.2696 2.6902e+09
     8.282 2.7158e+09
    8.2944 2.7414e+09
    8.3067 2.7673e+09
    8.3191 2.7933e+09
    8.3315 2.8196e+09
    8.3439  2.846e+09
    8.3563 2.8725e+09
    8.3687 2.8993e+09
    8.3811 2.9262e+09
    8.3935 2.9534e+09
    8.4059 2.9807e+09
    8.4183 3.0082e+09
    8.4307 3.0359e+09
    8.4431 3.0638e+09
    8.4555 3.0918e+09
    8.4679 3.1201e+09
    8.4803 3.1485e+09
    8.4927 3.1771e+09
    8.5051  3.206e+09
    8.5175  3.235e+09
    8.5299 3.2641e+09
    8.5423 3.2936e+09
    8.5547 3.3232e+09
    8.5671 3.3529e+09
    8.5795 3.3829e+09
    8.5919 3.4131e+09
    8.6043 3.4434e+09
    8.6167  3.474e+09
    8.6291 3.5048e+09
    8.6415 3.5357e+09
    8.6539 3.5669e+09
    8.6663 3.5983e+09
    8.6787 3.6298e+09
    8.6911 3.6616e+09
    8.7035 3.6936e+09
    8.7159 3.7257e+09
    8.7283 3.7581e+09
    8.7407 3.7907e+09
    8.7531 3.8235e+09
    8.7655 3.8565e+09
    8.7779 3.8896e+09
    8.7903 3.9231e+09
    8.8027 3.9567e+09
    8.8151 3.9905e+09
    8.8275 4.0245e+09
    8.8399 4.0588e+09
    8.8523 4.0932e+09
    8.8647 4.1279e+09
    8.8771 4.1627e+09
    8.8895 4.1978e+09
    8.9019 4.2331e+09
    8.9143 4.2686e+09
    8.9267 4.3044e+09
    8.9391 4.3403e+09
    8.9515 4.3765e+09
    8.9639 4.4129e+09
    8.9762 4.4495e+09
    8.9886 4.4863e+09
     9.001 4.5234e+09
    9.0134 4.5606e+09
    9.0258 4.5981e+09
    9.0382 4.6358e+09
    9.0506 4.6737e+09
     9.063 4.7119e+09
    9.0754 4.7502e+09
    9.0878 4.7889e+09
    9.1002 4.8277e+09
    9.1126 4.8667e+09
     9.125  4.906e+09
    9.1374 4.9455e+09
    9.1498 4.9853e+09
    9.1622 5.0252e+09
    9.1746 5.0654e+09
     9.187 5.1058e+09
    9.1994 5.1465e+09
    9.2118 5.1874e+09
    9.2242 5.2285e+09
    9.2366 5.2699e+09
     9.249 5.3115e+09
    9.2614 5.3533e+09
    9.2738 5.3953e+09
    9.2862 5.4376e+09
    9.2986 5.4802e+09
     9.311  5.523e+09
    9.3234  5.566e+09
    9.3358 5.6092e+09
    9.3482 5.6527e+09
    9.3606 5.6964e+09
     9.373 5.7404e+09
    9.3854 5.7846e+09
    9.3978 5.8291e+09
    9.4102 5.8738e+09
    9.4226 5.9187e+09
     9.435 5.9639e+09
    9.4474 6.0094e+09
    9.4598  6.055e+09
    9.4722  6.101e+09
    9.4846 6.1471e+09
     9.497 6.1936e+09
    9.5094 6.2402e+09
    9.5218 6.2871e+09
    9.5342 6.3343e+09
    9.5466 6.3818e+09
     9.559 6.4294e+09
    9.5714 6.4774e+09
    9.5838 6.5256e+09
    9.5962  6.574e+09
    9.6086 6.6227e+09
     9.621 6.6716e+09
    9.6333 6.7208e+09
    9.6457 6.7703e+09
    9.6581   6.82e+09
    9.6705   6.87e+09
    9.6829 6.9203e+09
    9.6953 6.9708e+09
    9.7077 7.0215e+09
    9.7201 7.0725e+09
    9.7325 7.1238e+09
    9.7449 7.1754e+09
    9.7573 7.2271e+09
    9.7697 7.2792e+09
    9.7821 7.3316e+09
    9.7945 7.3842e+09
    9.8069  7.437e+09
    9.8193 7.4902e+09
    9.8317 7.5436e+09
    9.8441 7.5973e+09
    9.8565 7.6512e+09
    9.8689 7.7054e+09
    9.8813 7.7599e+09
    9.8937 7.8146e+09
    9.9061 7.8696e+09
    9.9185 7.9249e+09
    9.9309 7.9805e+09
    9.9433 8.0363e+09
    9.9557 8.0925e+09
    9.9681 8.1488e+09
    9.9805 8.2055e+09
    9.9929 8.2624e+09
    10.005 8.3196e+09
    10.018 8.3771e+09
     10.03 8.4349e+09
    10.042  8.493e+09
    10.055 8.5513e+09
    10.067 8.6099e+09
     10.08 8.6688e+09
    10.092  8.728e+09
    10.104 8.7874e+09
    10.117 8.8471e+09
    10.129 8.9071e+09
    10.142 8.9675e+09
    10.154  9.028e+09
    10.166 9.0889e+09
    10.179 9.1501e+09
    10.191 9.2115e+09
    10.204 9.2732e+09
    10.216 9.3353e+09
    10.228 9.3976e+09
    10.241 9.4602e+09
    10.253  9.523e+09
    10.266 9.5863e+09
    10.278 9.6497e+09
     10.29 9.7135e+09
    10.303 9.7775e+09
    10.315 9.8419e+09
    10.328 9.9065e+09
     10.34 9.9715e+09
    10.352 1.0037e+10
    10.365 1.0102e+10
    10.377 1.0168e+10
     10.39 1.0234e+10
    10.402 1.0301e+10
    10.414 1.0367e+10
    10.427 1.0434e+10
    10.439 1.0502e+10
    10.452 1.0569e+10
    10.464 1.0637e+10
    10.476 1.0705e+10
    10.489 1.0774e+10
    10.501 1.0843e+10
    10.514 1.0912e+10
    10.526 1.0981e+10
    10.538 1.1051e+10
    10.551 1.1121e+10
    10.563 1.1191e+10
    10.576 1.1262e+10
    10.588 1.1333e+10
      10.6 1.1404e+10
    10.613 1.1476e+10
    10.625 1.1548e+10
    10.638  1.162e+10
     10.65 1.1692e+10
    10.662 1.1765e+10
    10.675 1.1838e+10
    10.687 1.1912e+10
      10.7 1.1986e+10
    10.712  1.206e+10
    10.724 1.2134e+10
    10.737 1.2209e+10
    10.749 1.2284e+10
    10.762 1.2359e+10
    10.774 1.2435e+10
    10.786 1.2511e+10
    10.799 1.2587e+10
    10.811 1.2664e+10
    10.824  1.274e+10
    10.836 1.2818e+10
    10.848 1.2895e+10
    10.861 1.2973e+10
    10.873 1.3051e+10
    10.886  1.313e+10
    10.898 1.3209e+10
     10.91 1.3288e+10
    10.923 1.3367e+10
    10.935 1.3447e+10
    10.948 1.3527e+10
     10.96 1.3608e+10
    10.972 1.3688e+10
    10.985  1.377e+10
    10.997 1.3851e+10
     11.01 1.3933e+10
    11.022 1.4015e+10
    11.034 1.4097e+10
    11.047  1.418e+10
    11.059 1.4263e+10
    11.072 1.4346e+10
    11.084  1.443e+10
    11.096 1.4514e+10
    11.109 1.4599e+10
    11.121 1.4683e+10
    11.134 1.4768e+10
    11.146 1.4854e+10
    11.158  1.494e+10
    11.171 1.5026e+10
    11.183 1.5112e+10
    11.196 1.5199e+10
    11.208 1.5286e+10
     11.22 1.5373e+10
    11.233 1.5461e+10
    11.245 1.5549e+10
    11.258 1.5638e+10
     11.27 1.5726e+10
    11.282 1.5815e+10
    11.295 1.5905e+10
    11.307 1.5995e+10
    11.319 1.6085e+10
    11.332 1.6175e+10
    11.344 1.6266e+10
    11.357 1.6357e+10
    11.369 1.6449e+10
    11.381  1.654e+10
    11.394 1.6633e+10
    11.406 1.6725e+10
    11.419 1.6818e+10
    11.431 1.6911e+10
    11.443 1.7005e+10
    11.456 1.7099e+10
    11.468 1.7193e+10
    11.481 1.7288e+10
    11.493 1.7383e+10
    11.505 1.7478e+10
    11.518 1.7573e+10
     11.53  1.767e+10
    11.543 1.7766e+10
    11.555 1.7863e+10
    11.567  1.796e+10
     11.58 1.8057e+10
    11.592 1.8155e+10
    11.605 1.8253e+10
    11.617 1.8351e+10
    11.629  1.845e+10
    11.642 1.8549e+10
    11.654 1.8649e+10
    11.667 1.8749e+10
    11.679 1.8849e+10
    11.691  1.895e+10
    11.704 1.9051e+10
    11.716 1.9152e+10
    11.729 1.9254e+10
    11.741 1.9356e+10
    11.753 1.9458e+10
    11.766 1.9561e+10
    11.778 1.9664e+10
    11.791 1.9768e+10
    11.803 1.9871e+10
    11.815 1.9976e+10
    11.828  2.008e+10
     11.84 2.0185e+10
    11.853  2.029e+10
    11.865 2.0396e+10
    11.877 2.0502e+10
     11.89 2.0608e+10
    11.902 2.0715e+10
    11.915 2.0822e+10
    11.927  2.093e+10
    11.939 2.1038e+10
    11.952 2.1146e+10
    11.964 2.1254e+10
    11.977 2.1363e+10
    11.989 2.1473e+10
    12.001 2.1582e+10
    12.014 2.1692e+10
    12.026 2.1803e+10
    12.039 2.1914e+10
    12.051 2.2025e+10
    12.063 2.2136e+10
    12.076 2.2248e+10
    12.088  2.236e+10
    12.101 2.2473e+10
    12.113 2.2586e+10
    12.125 2.2699e+10
    12.138 2.2813e+10
     12.15 2.2927e+10
    12.163 2.3042e+10
    12.175 2.3157e+10
    12.187 2.3272e+10
      12.2 2.3388e+10
    12.212 2.3504e+10
    12.225  2.362e+10
    12.237 2.3737e+10
    12.249 2.3854e+10
    12.262 2.3972e+10
    12.274 2.4089e+10
    12.287 2.4208e+10
    12.299 2.4326e+10
    12.311 2.4445e+10
    12.324 2.4565e+10
    12.336 2.4685e+10
    12.349 2.4805e+10
    12.361 2.4925e+10
    12.373 2.5046e+10
    12.386 2.5168e+10
    12.398 2.5289e+10
    12.411 2.5411e+10
    12.423 2.5534e+10
    12.435 2.5657e+10
    12.448  2.578e+10
     12.46 2.5904e+10
    12.473 2.6028e+10
    12.485 2.6152e+10
    12.497 2.6277e+10
     12.51 2.6402e+10
    12.522 2.6528e+10
    12.535 2.6654e+10
    12.547  2.678e+10
    12.559 2.6907e+10
    12.572 2.7034e+10
    12.584 2.7161e+10
    12.597 2.7289e+10
    12.609 2.7417e+10
    12.621 2.7546e+10
    12.634 2.7675e+10
    12.646 2.7805e+10
    12.658 2.7934e+10
    12.671 2.8065e+10
    12.683 2.8195e+10
    12.696 2.8326e+10
    12.708 2.8458e+10
     12.72  2.859e+10
    12.733 2.8722e+10
    12.745 2.8854e+10
    12.758 2.8987e+10
     12.77 2.9121e+10
    12.782 2.9254e+10
    12.795 2.9389e+10
    12.807 2.9523e+10
     12.82 2.9658e+10
    12.832 2.9793e+10
    12.844 2.9929e+10
    12.857 3.0065e+10
    12.869 3.0202e+10
    12.882 3.0339e+10
    12.894 3.0476e+10
    12.906 3.0614e+10
    12.919 3.0752e+10
    12.931 3.0891e+10
    12.944 3.1029e+10
    12.956 3.1169e+10
    12.968 3.1309e+10
    12.981 3.1449e+10
    12.993 3.1589e+10
    13.006  3.173e+10
    13.018 3.1871e+10
     13.03 3.2013e+10
    13.043 3.2155e+10
    13.055 3.2298e+10
    13.068 3.2441e+10
     13.08 3.2584e+10
    13.092 3.2728e+10
    13.105 3.2872e+10
    13.117 3.3017e+10
     13.13 3.3162e+10
    13.142 3.3307e+10
    13.154 3.3453e+10
    13.167 3.3599e+10
    13.179 3.3745e+10
    13.192 3.3892e+10
    13.204  3.404e+10
    13.216 3.4188e+10
    13.229 3.4336e+10
    13.241 3.4484e+10
    13.254 3.4633e+10
    13.266 3.4783e+10
    13.278 3.4933e+10
    13.291 3.5083e+10
    13.303 3.5233e+10
    13.316 3.5385e+10
    13.328 3.5536e+10
     13.34 3.5688e+10
    13.353  3.584e+10
    13.365 3.5993e+10
    13.378 3.6146e+10
     13.39 3.6299e+10
    13.402 3.6453e+10
    13.415 3.6608e+10
    13.427 3.6763e+10
     13.44 3.6918e+10
    13.452 3.7073e+10
    13.464 3.7229e+10
    13.477 3.7386e+10
    13.489 3.7542e+10
    13.502   3.77e+10
    13.514 3.7857e+10
    13.526 3.8015e+10
    13.539 3.8174e+10
    13.551 3.8333e+10
    13.564 3.8492e+10
    13.576 3.8652e+10
    13.588 3.8812e+10
    13.601 3.8972e+10
    13.613 3.9133e+10
    13.626 3.9295e+10
    13.638 3.9456e+10
     13.65 3.9619e+10
    13.663 3.9781e+10
    13.675 3.9944e+10
    13.688 4.0108e+10
      13.7 4.0272e+10
    13.712 4.0436e+10
    13.725 4.0601e+10
    13.737 4.0766e+10
     13.75 4.0931e+10
    13.762 4.1097e+10
    13.774 4.1264e+10
    13.787  4.143e+10
    13.799 4.1598e+10
    13.812 4.1765e+10
    13.824 4.1933e+10
    13.836 4.2102e+10
    13.849 4.2271e+10
    13.861  4.244e+10
    13.874  4.261e+10
    13.886  4.278e+10
    13.898  4.295e+10
    13.911 4.3121e+10
    13.923 4.3293e+10
    13.936 4.3465e+10
    13.948 4.3637e+10
     13.96  4.381e+10
    13.973 4.3983e+10
    13.985 4.4156e+10
    13.997  4.433e+10
     14.01 4.4505e+10
    14.022 4.4679e+10
    14.035 4.4855e+10
    14.047  4.503e+10
    14.059 4.5206e+10
    14.072 4.5383e+10
    14.084  4.556e+10
    14.097 4.5737e+10
    14.109 4.5915e+10
    14.121 4.6093e+10
    14.134 4.6272e+10
    14.146 4.6451e+10
    14.159  4.663e+10
    14.171  4.681e+10
    14.183 4.6991e+10
    14.196 4.7171e+10
    14.208 4.7352e+10
    14.221 4.7534e+10
    14.233 4.7716e+10
    14.245 4.7899e+10
    14.258 4.8081e+10
     14.27 4.8265e+10
    14.283 4.8449e+10
    14.295 4.8633e+10
    14.307 4.8817e+10
     14.32 4.9002e+10
    14.332 4.9188e+10
    14.345 4.9374e+10
    14.357  4.956e+10
    14.369 4.9747e+10
    14.382 4.9934e+10
    14.394 5.0122e+10
    14.407  5.031e+10
    14.419 5.0498e+10
    14.431 5.0687e+10
    14.444 5.0876e+10
    14.456 5.1066e+10
    14.469 5.1256e+10
    14.481 5.1446e+10
    14.493 5.1638e+10
    14.506 5.1829e+10
    14.518 5.2021e+10
    14.531 5.2214e+10
    14.543 5.2406e+10
    14.555 5.2599e+10
    14.568 5.2793e+10
     14.58 5.2987e+10
    14.593 5.3182e+10
    14.605 5.3377e+10
    14.617 5.3572e+10
     14.63 5.3768e+10
    14.642 5.3964e+10
    14.655  5.416e+10
    14.667 5.4358e+10
    14.679 5.4555e+10
    14.692 5.4753e+10
    14.704 5.4952e+10
    14.717  5.515e+10
    14.729 5.5349e+10
    14.741 5.5549e+10
    14.754 5.5749e+10
    14.766  5.595e+10
    14.779 5.6151e+10
    14.791 5.6352e+10
    14.803 5.6554e+10
    14.816 5.6756e+10
    14.828 5.6959e+10
    14.841 5.7162e+10
    14.853 5.7366e+10
    14.865  5.757e+10
    14.878 5.7774e+10
     14.89 5.7979e+10
    14.903 5.8184e+10
    14.915  5.839e+10
    14.927 5.8597e+10
     14.94 5.8803e+10
    14.952  5.901e+10
    14.965 5.9218e+10
    14.977 5.9426e+10
    14.989 5.9634e+10
    15.002 5.9843e+10
    15.014 6.0052e+10
    15.027 6.0262e+10
    15.039 6.0472e+10
    15.051 6.0683e+10
    15.064 6.0894e+10
    15.076 6.1105e+10
    15.089 6.1317e+10
    15.101 6.1529e+10
    15.113 6.1742e+10
    15.126 6.1955e+10
    15.138 6.2169e+10
    15.151 6.2383e+10
    15.163 6.2597e+10
    15.175 6.2812e+10
    15.188 6.3028e+10
      15.2 6.3244e+10
    15.213  6.346e+10
    15.225 6.3676e+10
    15.237 6.3894e+10
     15.25 6.4111e+10
    15.262 6.4329e+10
    15.275 6.4547e+10
    15.287 6.4766e+10
    15.299 6.4986e+10
    15.312 6.5206e+10
    15.324 6.5426e+10
    15.336 6.5646e+10
    15.349 6.5868e+10
    15.361 6.6089e+10
    15.374 6.6311e+10
    15.386 6.6533e+10
    15.398 6.6756e+10
    15.411 6.6979e+10
    15.423 6.7203e+10
    15.436 6.7427e+10
    15.448 6.7652e+10
     15.46 6.7877e+10
    15.473 6.8102e+10
    15.485 6.8328e+10
    15.498 6.8555e+10
     15.51 6.8781e+10
    15.522 6.9008e+10
    15.535 6.9236e+10
    15.547 6.9464e+10
     15.56 6.9693e+10
    15.572 6.9922e+10
    15.584 7.0152e+10
    15.597 7.0381e+10
    15.609 7.0611e+10
    15.622 7.0843e+10
    15.634 7.1073e+10
    15.646 7.1305e+10
    15.659 7.1537e+10
    15.671  7.177e+10
    15.684 7.2003e+10
    15.696 7.2236e+10
    15.708  7.247e+10
    15.721 7.2704e+10
    15.733 7.2939e+10
    15.746 7.3174e+10
    15.758  7.341e+10
     15.77 7.3646e+10
    15.783 7.3882e+10
    15.795 7.4119e+10
    15.808 7.4357e+10
     15.82 7.4594e+10
    15.832 7.4833e+10
    15.845 7.5071e+10
    15.857  7.531e+10
     15.87  7.555e+10
    15.882  7.579e+10
    15.894  7.603e+10
    15.907 7.6271e+10
    15.919 7.6512e+10
    15.932 7.6754e+10
    15.944 7.6997e+10
    15.956 7.7239e+10
    15.969 7.7482e+10
    15.981 7.7726e+10
    15.994  7.797e+10
    16.006 7.8214e+10
    16.018 7.8459e+10
    16.031 7.8704e+10
    16.043  7.895e+10
    16.056 7.9196e+10
    16.068 7.9443e+10
     16.08  7.969e+10
    16.093 7.9938e+10
    16.105 8.0185e+10
    16.118 8.0434e+10
     16.13 8.0683e+10
    16.142 8.0932e+10
    16.155 8.1181e+10
    16.167 8.1432e+10
     16.18 8.1683e+10
    16.192 8.1933e+10
    16.204 8.2185e+10
    16.217 8.2437e+10
    16.229 8.2689e+10
    16.242 8.2942e+10
    16.254 8.3195e+10
    16.266 8.3449e+10
    16.279 8.3703e+10
    16.291 8.3957e+10
    16.304 8.4213e+10
    16.316 8.4468e+10
    16.328 8.4724e+10
    16.341  8.498e+10
    16.353 8.5237e+10
    16.366 8.5494e+10
    16.378 8.5752e+10
     16.39  8.601e+10
    16.403 8.6269e+10
    16.415 8.6528e+10
    16.428 8.6787e+10
     16.44 8.7047e+10
    16.452 8.7307e+10
    16.465 8.7568e+10
    16.477 8.7829e+10
     16.49 8.8091e+10
    16.502 8.8353e+10
    16.514 8.8615e+10
    16.527 8.8878e+10
    16.539 8.9142e+10
    16.552 8.9406e+10
    16.564  8.967e+10
    16.576 8.9935e+10
    16.589   9.02e+10
    16.601 9.0465e+10
    16.613 9.0731e+10
    16.626 9.0998e+10
    16.638 9.1265e+10
    16.651 9.1532e+10
    16.663   9.18e+10
    16.675 9.2068e+10
    16.688 9.2337e+10
      16.7 9.2606e+10
    16.713 9.2876e+10
    16.725 9.3145e+10
    16.737 9.3416e+10
     16.75 9.3687e+10
    16.762 9.3958e+10
    16.775  9.423e+10
    16.787 9.4502e+10
    16.799 9.4775e+10
    16.812 9.5048e+10
    16.824 9.5321e+10
    16.837 9.5596e+10
    16.849  9.587e+10
    16.861 9.6145e+10
    16.874 9.6419e+10
    16.886 9.6695e+10
    16.899 9.6972e+10
    16.911 9.7248e+10
    16.923 9.7526e+10
    16.936 9.7803e+10
    16.948 9.8081e+10
    16.961 9.8359e+10
    16.973 9.8638e+10
    16.985 9.8917e+10
    16.998 9.9197e+10
     17.01 9.9477e+10
    17.023 9.9758e+10
    17.035 1.0004e+11
    17.047 1.0032e+11
     17.06  1.006e+11
    17.072 1.0088e+11
    17.085 1.0117e+11
    17.097 1.0145e+11
    17.109 1.0173e+11
    17.122 1.0202e+11
    17.134  1.023e+11
    17.147 1.0259e+11
    17.159 1.0287e+11
    17.171 1.0316e+11
    17.184 1.0344e+11
    17.196 1.0373e+11
    17.209 1.0402e+11
    17.221 1.0431e+11
    17.233 1.0459e+11
    17.246 1.0488e+11
    17.258 1.0517e+11
    17.271 1.0546e+11
    17.283 1.0575e+11
    17.295 1.0604e+11
    17.308 1.0633e+11
     17.32 1.0662e+11
    17.333 1.0691e+11
    17.345 1.0721e+11
    17.357  1.075e+11
     17.37 1.0779e+11
    17.382 1.0808e+11
    17.395 1.0838e+11
    17.407 1.0867e+11
    17.419 1.0897e+11
    17.432 1.0926e+11
    17.444 1.0956e+11
    17.457 1.0985e+11
    17.469 1.1015e+11
    17.481 1.1045e+11
    17.494 1.1074e+11
    17.506 1.1104e+11
    17.519 1.1134e+11
    17.531 1.1164e+11
    17.543 1.1194e+11
    17.556 1.1224e+11
    17.568 1.1254e+11
    17.581 1.1284e+11
    17.593 1.1314e+11
    17.605 1.1344e+11
    17.618 1.1374e+11
     17.63 1.1404e+11
    17.643 1.1434e+11
    17.655 1.1465e+11
    17.667 1.1495e+11
     17.68 1.1525e+11
    17.692 1.1556e+11
    17.705 1.1586e+11
    17.717 1.1617e+11
    17.729 1.1647e+11
    17.742 1.1678e+11
    17.754 1.1709e+11
    17.767 1.1739e+11
    17.779  1.177e+11
    17.791 1.1801e+11
    17.804 1.1832e+11
    17.816 1.1862e+11
    17.829 1.1893e+11
    17.841 1.1924e+11
    17.853 1.1955e+11
    17.866 1.1986e+11
    17.878 1.2017e+11
    17.891 1.2048e+11
    17.903  1.208e+11
    17.915 1.2111e+11
    17.928 1.2142e+11
     17.94 1.2173e+11
    17.952 1.2205e+11
    17.965 1.2236e+11
    17.977 1.2267e+11
     17.99 1.2299e+11
    18.002  1.233e+11
    18.014 1.2362e+11
    18.027 1.2394e+11
    18.039 1.2425e+11
    18.052 1.2457e+11
    18.064 1.2489e+11
    18.076  1.252e+11
    18.089 1.2552e+11
    18.101 1.2584e+11
    18.114 1.2616e+11
    18.126 1.2648e+11
    18.138  1.268e+11
    18.151 1.2712e+11
    18.163 1.2744e+11
    18.176 1.2776e+11
    18.188 1.2808e+11
      18.2  1.284e+11
    18.213 1.2872e+11
    18.225 1.2905e+11
    18.238 1.2937e+11
     18.25 1.2969e+11
    18.262 1.3002e+11
    18.275 1.3034e+11
    18.287 1.3067e+11
      18.3 1.3099e+11
    18.312 1.3132e+11
    18.324 1.3164e+11
    18.337 1.3197e+11
    18.349  1.323e+11
    18.362 1.3263e+11
    18.374 1.3295e+11
    18.386 1.3328e+11
    18.399 1.3361e+11
    18.411 1.3394e+11
    18.424 1.3427e+11
    18.436  1.346e+11
    18.448 1.3493e+11
    18.461 1.3526e+11
    18.473 1.3559e+11
    18.486 1.3592e+11
    18.498 1.3626e+11
     18.51 1.3659e+11
    18.523 1.3692e+11
    18.535 1.3725e+11
    18.548 1.3759e+11
     18.56 1.3792e+11
    18.572 1.3826e+11
    18.585 1.3859e+11
    18.597 1.3893e+11
     18.61 1.3926e+11
    18.622  1.396e+11
    18.634 1.3994e+11
    18.647 1.4027e+11
    18.659 1.4061e+11
    18.672 1.4095e+11
    18.684 1.4129e+11
    18.696 1.4163e+11
    18.709 1.4197e+11
    18.721 1.4231e+11
    18.734 1.4265e+11
    18.746 1.4299e+11
    18.758 1.4333e+11
    18.771 1.4367e+11
    18.783 1.4401e+11
    18.796 1.4435e+11
    18.808  1.447e+11
     18.82 1.4504e+11
    18.833 1.4538e+11
    18.845 1.4573e+11
    18.858 1.4607e+11
     18.87 1.4642e+11
    18.882 1.4676e+11
    18.895 1.4711e+11
    18.907 1.4745e+11
     18.92  1.478e+11
    18.932 1.4815e+11
    18.944 1.4849e+11
    18.957 1.4884e+11
    18.969 1.4919e+11
    18.982 1.4954e+11
    18.994 1.4989e+11
    19.006 1.5024e+11
    19.019 1.5059e+11
    19.031 1.5094e+11
    19.044 1.5129e+11
    19.056 1.5164e+11
    19.068 1.5199e+11
    19.081 1.5234e+11
    19.093  1.527e+11
    19.106 1.5305e+11
    19.118  1.534e+11
     19.13 1.5376e+11
    19.143 1.5411e+11
    19.155 1.5446e+11
    19.168 1.5482e+11
     19.18 1.5517e+11
    19.192 1.5553e+11
    19.205 1.5589e+11
    19.217 1.5624e+11
     19.23  1.566e+11
    19.242 1.5696e+11
    19.254 1.5732e+11
    19.267 1.5767e+11
    19.279 1.5803e+11
    19.291 1.5839e+11
    19.304 1.5875e+11
    19.316 1.5911e+11
    19.329 1.5947e+11
    19.341 1.5983e+11
    19.353 1.6019e+11
    19.366 1.6055e+11
    19.378 1.6092e+11
    19.391 1.6128e+11
    19.403 1.6164e+11
    19.415   1.62e+11
    19.428 1.6237e+11
     19.44 1.6273e+11
    19.453  1.631e+11
    19.465 1.6346e+11
    19.477 1.6383e+11
     19.49 1.6419e+11
    19.502 1.6456e+11
    19.515 1.6492e+11
    19.527 1.6529e+11
    19.539 1.6566e+11
    19.552 1.6603e+11
    19.564  1.664e+11
    19.577 1.6676e+11
    19.589 1.6713e+11
    19.601  1.675e+11
    19.614 1.6787e+11
    19.626 1.6824e+11
    19.639 1.6861e+11
    19.651 1.6898e+11
    19.663 1.6935e+11
    19.676 1.6973e+11
    19.688  1.701e+11
    19.701 1.7047e+11
    19.713 1.7084e+11
    19.725 1.7122e+11
    19.738 1.7159e+11
     19.75 1.7197e+11
    19.763 1.7234e+11
    19.775 1.7272e+11
    19.787 1.7309e+11
      19.8 1.7347e+11
    19.812 1.7384e+11
    19.825 1.7422e+11
    19.837  1.746e+11
    19.849 1.7497e+11
    19.862 1.7535e+11
    19.874 1.7573e+11
    19.887 1.7611e+11
    19.899 1.7649e+11
    19.911 1.7687e+11
    19.924 1.7725e+11
    19.936 1.7763e+11
    19.949 1.7801e+11
    19.961 1.7839e+11
    19.973 1.7877e+11
    19.986 1.7915e+11
    19.998 1.7954e+11
    20.011 1.7992e+11
    20.023  1.803e+11
    20.035 1.8069e+11
    20.048 1.8107e+11
     20.06 1.8145e+11
    20.073 1.8184e+11
    20.085 1.8222e+11
    20.097 1.8261e+11
     20.11   1.83e+11
    20.122 1.8338e+11
    20.135 1.8377e+11
    20.147 1.8416e+11
    20.159 1.8454e+11
    20.172 1.8493e+11
    20.184 1.8532e+11
    20.197 1.8571e+11
    20.209  1.861e+11
    20.221 1.8649e+11
    20.234 1.8688e+11
    20.246 1.8727e+11
    20.259 1.8766e+11
    20.271 1.8805e+11
    20.283 1.8844e+11
    20.296 1.8883e+11
    20.308 1.8923e+11
    20.321 1.8962e+11
    20.333 1.9001e+11
    20.345 1.9041e+11
    20.358  1.908e+11
     20.37 1.9119e+11
    20.383 1.9159e+11
    20.395 1.9198e+11
    20.407 1.9238e+11
     20.42 1.9278e+11
    20.432 1.9317e+11
    20.445 1.9357e+11
    20.457 1.9397e+11
    20.469 1.9436e+11
    20.482 1.9476e+11
    20.494 1.9516e+11
    20.507 1.9556e+11
    20.519 1.9596e+11
    20.531 1.9636e+11
    20.544 1.9676e+11
    20.556 1.9716e+11
    20.569 1.9756e+11
    20.581 1.9796e+11
    20.593 1.9836e+11
    20.606 1.9876e+11
    20.618 1.9917e+11
     20.63 1.9957e+11
    20.643 1.9997e+11
    20.655 2.0037e+11
    20.668 2.0078e+11
     20.68 2.0118e+11
    20.692 2.0159e+11
    20.705 2.0199e+11
    20.717  2.024e+11
     20.73  2.028e+11
    20.742 2.0321e+11
    20.754 2.0362e+11
    20.767 2.0402e+11
    20.779 2.0443e+11
    20.792 2.0484e+11
    20.804 2.0525e+11
    20.816 2.0565e+11
    20.829 2.0606e+11
    20.841 2.0647e+11
    20.854 2.0688e+11
    20.866 2.0729e+11
    20.878  2.077e+11
    20.891 2.0811e+11
    20.903 2.0852e+11
    20.916 2.0893e+11
    20.928 2.0935e+11
     20.94 2.0976e+11
    20.953 2.1017e+11
    20.965 2.1059e+11
    20.978   2.11e+11
     20.99 2.1141e+11
    21.002 2.1183e+11
    21.015 2.1224e+11
    21.027 2.1266e+11
     21.04 2.1307e+11
    21.052 2.1349e+11
    21.064  2.139e+11
    21.077 2.1432e+11
    21.089 2.1474e+11
    21.102 2.1515e+11
    21.114 2.1557e+11
    21.126 2.1599e+11
    21.139 2.1641e+11
    21.151 2.1683e+11
    21.164 2.1725e+11
    21.176 2.1767e+11
    21.188 2.1809e+11
    21.201 2.1851e+11
    21.213 2.1893e+11
    21.226 2.1935e+11
    21.238 2.1977e+11
     21.25 2.2019e+11
    21.263 2.2061e+11
    21.275 2.2104e+11
    21.288 2.2146e+11
      21.3 2.2188e+11
    21.312 2.2231e+11
    21.325 2.2273e+11
    21.337 2.2316e+11
     21.35 2.2358e+11
    21.362 2.2401e+11
    21.374 2.2443e+11
    21.387 2.2486e+11
    21.399 2.2529e+11
    21.412 2.2571e+11
    21.424 2.2614e+11
    21.436 2.2657e+11
    21.449 2.2699e+11
    21.461 2.2742e+11
    21.474 2.2785e+11
    21.486 2.2828e+11
    21.498 2.2871e+11
    21.511 2.2914e+11
    21.523 2.2957e+11
    21.536    2.3e+11
    21.548 2.3043e+11
     21.56 2.3086e+11
    21.573 2.3129e+11
    21.585 2.3173e+11
    21.598 2.3216e+11
     21.61 2.3259e+11
    21.622 2.3302e+11
    21.635 2.3346e+11
    21.647 2.3389e+11
     21.66 2.3433e+11
    21.672 2.3476e+11
    21.684  2.352e+11
    21.697 2.3563e+11
    21.709 2.3607e+11
    21.722  2.365e+11
    21.734 2.3694e+11
    21.746 2.3738e+11
    21.759 2.3781e+11
    21.771 2.3825e+11
    21.784 2.3869e+11
    21.796 2.3913e+11
    21.808 2.3957e+11
    21.821 2.4001e+11
    21.833 2.4044e+11
    21.846 2.4088e+11
    21.858 2.4132e+11
     21.87 2.4177e+11
    21.883 2.4221e+11
    21.895 2.4265e+11
    21.908 2.4309e+11
     21.92 2.4353e+11
    21.932 2.4397e+11
    21.945 2.4442e+11
    21.957 2.4486e+11
    21.969  2.453e+11
    21.982 2.4575e+11
    21.994 2.4619e+11
    22.007 2.4664e+11
    22.019 2.4708e+11
    22.031 2.4753e+11
    22.044 2.4797e+11
    22.056 2.4842e+11
    22.069 2.4886e+11
    22.081 2.4931e+11
    22.093 2.4976e+11
    22.106  2.502e+11
    22.118 2.5065e+11
    22.131  2.511e+11
    22.143 2.5155e+11
    22.155   2.52e+11
    22.168 2.5245e+11
     22.18  2.529e+11
    22.193 2.5335e+11
    22.205  2.538e+11
    22.217 2.5425e+11
     22.23  2.547e+11
    22.242 2.5515e+11
    22.255  2.556e+11
    22.267 2.5606e+11
    22.279 2.5651e+11
    22.292 2.5696e+11
    22.304 2.5741e+11
    22.317 2.5787e+11
    22.329 2.5832e+11
    22.341 2.5877e+11
    22.354 2.5923e+11
    22.366 2.5968e+11
    22.379 2.6014e+11
    22.391  2.606e+11
    22.403 2.6105e+11
    22.416 2.6151e+11
    22.428 2.6196e+11
    22.441 2.6242e+11
    22.453 2.6288e+11
    22.465 2.6334e+11
    22.478 2.6379e+11
     22.49 2.6425e+11
    22.503 2.6471e+11
    22.515 2.6517e+11
    22.527 2.6563e+11
     22.54 2.6609e+11
    22.552 2.6655e+11
    22.565 2.6701e+11
    22.577 2.6747e+11
    22.589 2.6793e+11
    22.602  2.684e+11
    22.614 2.6886e+11
    22.627 2.6932e+11
    22.639 2.6978e+11
    22.651 2.7025e+11
    22.664 2.7071e+11
    22.676 2.7117e+11
    22.689 2.7164e+11
    22.701  2.721e+11
    22.713 2.7257e+11
    22.726 2.7303e+11
    22.738  2.735e+11
    22.751 2.7396e+11
    22.763 2.7443e+11
    22.775  2.749e+11
    22.788 2.7536e+11
      22.8 2.7583e+11
    22.813  2.763e+11
    22.825 2.7677e+11
    22.837 2.7723e+11
     22.85  2.777e+11
    22.862 2.7817e+11
    22.875 2.7864e+11
    22.887 2.7911e+11
    22.899 2.7958e+11
    22.912 2.8005e+11
    22.924 2.8052e+11
    22.937 2.8099e+11
    22.949 2.8146e+11
    22.961 2.8194e+11
    22.974 2.8241e+11
    22.986 2.8288e+11
    22.999 2.8335e+11
    23.011 2.8383e+11
    23.023  2.843e+11
    23.036 2.8477e+11
    23.048 2.8525e+11
    23.061 2.8572e+11
    23.073  2.862e+11
    23.085 2.8667e+11
    23.098 2.8715e+11
     23.11 2.8762e+11
    23.123  2.881e+11
    23.135 2.8858e+11
    23.147 2.8905e+11
     23.16 2.8953e+11
    23.172 2.9001e+11
    23.185 2.9049e+11
    23.197 2.9096e+11
    23.209 2.9144e+11
    23.222 2.9192e+11
    23.234  2.924e+11
    23.247 2.9288e+11
    23.259 2.9336e+11
    23.271 2.9384e+11
    23.284 2.9432e+11
    23.296  2.948e+11
    23.308 2.9528e+11
    23.321 2.9576e+11
    23.333 2.9624e+11
    23.346 2.9673e+11
    23.358 2.9721e+11
     23.37 2.9769e+11
    23.383 2.9818e+11
    23.395 2.9866e+11
    23.408 2.9914e+11
     23.42 2.9963e+11
    23.432 3.0011e+11
    23.445  3.006e+11
    23.457 3.0108e+11
     23.47 3.0157e+11
    23.482 3.0205e+11
    23.494 3.0254e+11
    23.507 3.0303e+11
    23.519 3.0351e+11
    23.532   3.04e+11
    23.544 3.0449e+11
    23.556 3.0498e+11
    23.569 3.0546e+11
    23.581 3.0595e+11
    23.594 3.0644e+11
    23.606 3.0693e+11
    23.618 3.0742e+11
    23.631 3.0791e+11
    23.643  3.084e+11
    23.656 3.0889e+11
    23.668 3.0938e+11
     23.68 3.0987e+11
    23.693 3.1036e+11
    23.705 3.1086e+11
    23.718 3.1135e+11
     23.73 3.1184e+11
    23.742 3.1233e+11
    23.755 3.1283e+11
    23.767 3.1332e+11
     23.78 3.1381e+11
    23.792 3.1431e+11
    23.804  3.148e+11
    23.817  3.153e+11
    23.829 3.1579e+11
    23.842 3.1629e+11
    23.854 3.1678e+11
    23.866 3.1728e+11
    23.879 3.1777e+11
    23.891 3.1827e+11
    23.904 3.1877e+11
    23.916 3.1927e+11
    23.928 3.1976e+11
    23.941 3.2026e+11
    23.953 3.2076e+11
    23.966 3.2126e+11
    23.978 3.2176e+11
     23.99 3.2226e+11
    24.003 3.2276e+11
    24.015 3.2326e+11
    24.028 3.2376e+11
     24.04 3.2426e+11
    24.052 3.2476e+11
    24.065 3.2526e+11
    24.077 3.2576e+11
     24.09 3.2626e+11
    24.102 3.2676e+11
    24.114 3.2727e+11
    24.127 3.2777e+11
    24.139 3.2827e+11
    24.152 3.2877e+11
    24.164 3.2928e+11
    24.176 3.2978e+11
    24.189 3.3029e+11
    24.201 3.3079e+11
    24.214  3.313e+11
    24.226  3.318e+11
    24.238 3.3231e+11
    24.251 3.3281e+11
    24.263 3.3332e+11
    24.276 3.3382e+11
    24.288 3.3433e+11
      24.3 3.3484e+11
    24.313 3.3535e+11
    24.325 3.3585e+11
    24.338 3.3636e+11
     24.35 3.3687e+11
    24.362 3.3738e+11
    24.375 3.3789e+11
    24.387  3.384e+11
      24.4 3.3891e+11
    24.412 3.3942e+11
    24.424 3.3993e+11
    24.437 3.4044e+11
    24.449 3.4095e+11
    24.462 3.4146e+11
    24.474 3.4197e+11
    24.486 3.4248e+11
    24.499 3.4299e+11
    24.511 3.4351e+11
    24.524 3.4402e+11
    24.536 3.4453e+11
    24.548 3.4505e+11
    24.561 3.4556e+11
    24.573 3.4607e+11
    24.585 3.4659e+11
    24.598  3.471e+11
     24.61 3.4762e+11
    24.623 3.4813e+11
    24.635 3.4865e+11
    24.647 3.4916e+11
     24.66 3.4968e+11
    24.672  3.502e+11
    24.685 3.5071e+11
    24.697 3.5123e+11
    24.709 3.5175e+11
    24.722 3.5226e+11
    24.734 3.5278e+11
    24.747  3.533e+11
    24.759 3.5382e+11
    24.771 3.5434e+11
    24.784 3.5485e+11
    24.796 3.5537e+11
    24.809 3.5589e+11
    24.821 3.5641e+11
    24.833 3.5693e+11
    24.846 3.5745e+11
    24.858 3.5798e+11
    24.871  3.585e+11
    24.883 3.5902e+11
    24.895 3.5954e+11
    24.908 3.6006e+11
     24.92 3.6058e+11
    24.933 3.6111e+11
    24.945 3.6163e+11
    24.957 3.6215e+11
     24.97 3.6268e+11
    24.982  3.632e+11
    24.995 3.6372e+11
    25.007 3.6425e+11
    25.019 3.6477e+11
    25.032  3.653e+11
    25.044 3.6582e+11
    25.057 3.6635e+11
    25.069 3.6687e+11
    25.081  3.674e+11
    25.094 3.6793e+11
    25.106 3.6845e+11
    25.119 3.6898e+11
    25.131 3.6951e+11
    25.143 3.7004e+11
    25.156 3.7056e+11
    25.168 3.7109e+11
    25.181 3.7162e+11
    25.193 3.7215e+11
    25.205 3.7268e+11
    25.218 3.7321e+11
     25.23 3.7374e+11
    25.243 3.7427e+11
    25.255  3.748e+11
    25.267 3.7533e+11
     25.28 3.7586e+11
    25.292 3.7639e+11
    25.305 3.7692e+11
    25.317 3.7745e+11
    25.329 3.7798e+11
    25.342 3.7852e+11
    25.354 3.7905e+11
    25.367 3.7958e+11
    25.379 3.8012e+11
    25.391 3.8065e+11
    25.404 3.8118e+11
    25.416 3.8172e+11
    25.429 3.8225e+11
    25.441 3.8279e+11
    25.453 3.8332e+11
    25.466 3.8386e+11
    25.478 3.8439e+11
    25.491 3.8493e+11
    25.503 3.8546e+11
    25.515   3.86e+11
    25.528 3.8654e+11
     25.54 3.8707e+11
    25.553 3.8761e+11
    25.565 3.8815e+11
    25.577 3.8869e+11
     25.59 3.8922e+11
    25.602 3.8976e+11
    25.615  3.903e+11
    25.627 3.9084e+11
    25.639 3.9138e+11
    25.652 3.9192e+11
    25.664 3.9246e+11
    25.677   3.93e+11
    25.689 3.9354e+11
    25.701 3.9408e+11
    25.714 3.9462e+11
    25.726 3.9516e+11
    25.739  3.957e+11
    25.751 3.9624e+11
    25.763 3.9678e+11
    25.776 3.9733e+11
    25.788 3.9787e+11
    25.801 3.9841e+11
    25.813 3.9896e+11
    25.825  3.995e+11
    25.838 4.0004e+11
     25.85 4.0059e+11
    25.863 4.0113e+11
    25.875 4.0167e+11
    25.887 4.0222e+11
      25.9 4.0276e+11
    25.912 4.0331e+11
    25.924 4.0385e+11
    25.937  4.044e+11
    25.949 4.0495e+11
    25.962 4.0549e+11
    25.974 4.0604e+11
    25.986 4.0659e+11
    25.999 4.0713e+11
    26.011 4.0768e+11
    26.024 4.0823e+11
    26.036 4.0878e+11
    26.048 4.0933e+11
    26.061 4.0987e+11
    26.073 4.1042e+11
    26.086 4.1097e+11
    26.098 4.1152e+11
     26.11 4.1207e+11
    26.123 4.1262e+11
    26.135 4.1317e+11
    26.148 4.1372e+11
     26.16 4.1427e+11
    26.172 4.1482e+11
    26.185 4.1537e+11
    26.197 4.1593e+11
     26.21 4.1648e+11
    26.222 4.1703e+11
    26.234 4.1758e+11
    26.247 4.1813e+11
    26.259 4.1869e+11
    26.272 4.1924e+11
    26.284 4.1979e+11
    26.296 4.2035e+11
    26.309  4.209e+11
    26.321 4.2145e+11
    26.334 4.2201e+11
    26.346 4.2256e+11
    26.358 4.2312e+11
    26.371 4.2367e+11
    26.383 4.2423e+11
    26.396 4.2478e+11
    26.408 4.2534e+11
     26.42  4.259e+11
    26.433 4.2645e+11
    26.445 4.2701e+11
    26.458 4.2757e+11
     26.47 4.2813e+11
    26.482 4.2868e+11
    26.495 4.2924e+11
    26.507  4.298e+11
     26.52 4.3036e+11
    26.532 4.3092e+11
    26.544 4.3147e+11
    26.557 4.3203e+11
    26.569 4.3259e+11
    26.582 4.3315e+11
    26.594 4.3371e+11
    26.606 4.3427e+11
    26.619 4.3483e+11
    26.631 4.3539e+11
    26.644 4.3596e+11
    26.656 4.3652e+11
    26.668 4.3708e+11
    26.681 4.3764e+11
    26.693  4.382e+11
    26.706 4.3876e+11
    26.718 4.3933e+11
     26.73 4.3989e+11
    26.743 4.4045e+11
    26.755 4.4101e+11
    26.768 4.4158e+11
     26.78 4.4214e+11
    26.792 4.4271e+11
    26.805 4.4327e+11
    26.817 4.4384e+11
     26.83  4.444e+11
    26.842 4.4497e+11
    26.854 4.4553e+11
    26.867  4.461e+11
    26.879 4.4666e+11
    26.892 4.4723e+11
    26.904 4.4779e+11
    26.916 4.4836e+11
    26.929 4.4893e+11
    26.941 4.4949e+11
    26.954 4.5006e+11
    26.966 4.5063e+11
    26.978  4.512e+11
    26.991 4.5176e+11
    27.003 4.5233e+11
    27.016  4.529e+11
    27.028 4.5347e+11
     27.04 4.5404e+11
    27.053 4.5461e+11
    27.065 4.5518e+11
    27.078 4.5575e+11
     27.09 4.5632e+11
    27.102 4.5689e+11
    27.115 4.5746e+11
    27.127 4.5803e+11
     27.14  4.586e+11
    27.152 4.5917e+11
    27.164 4.5975e+11
    27.177 4.6032e+11
    27.189 4.6089e+11
    27.202 4.6146e+11
    27.214 4.6204e+11
    27.226 4.6261e+11
    27.239 4.6318e+11
    27.251 4.6375e+11
    27.263 4.6433e+11
    27.276  4.649e+11
    27.288 4.6548e+11
    27.301 4.6605e+11
    27.313 4.6662e+11
    27.325  4.672e+11
    27.338 4.6778e+11
     27.35 4.6835e+11
    27.363 4.6892e+11
    27.375  4.695e+11
    27.387 4.7008e+11
      27.4 4.7065e+11
    27.412 4.7123e+11
    27.425  4.718e+11
    27.437 4.7238e+11
    27.449 4.7296e+11
    27.462 4.7354e+11
    27.474 4.7411e+11
    27.487 4.7469e+11
    27.499 4.7527e+11
    27.511 4.7585e+11
    27.524 4.7643e+11
    27.536 4.7701e+11
    27.549 4.7759e+11
    27.561 4.7817e+11
    27.573 4.7874e+11
    27.586 4.7932e+11
    27.598  4.799e+11
    27.611 4.8048e+11
    27.623 4.8106e+11
    27.635 4.8165e+11
    27.648 4.8223e+11
     27.66 4.8281e+11
    27.673 4.8339e+11
    27.685 4.8397e+11
    27.697 4.8455e+11
     27.71 4.8514e+11
    27.722 4.8572e+11
    27.735  4.863e+11
    27.747 4.8688e+11
    27.759 4.8747e+11
    27.772 4.8805e+11
    27.784 4.8863e+11
    27.797 4.8922e+11
    27.809  4.898e+11
    27.821 4.9039e+11
    27.834 4.9097e+11
    27.846 4.9156e+11
    27.859 4.9214e+11
    27.871 4.9273e+11
    27.883 4.9331e+11
    27.896  4.939e+11
    27.908 4.9448e+11
    27.921 4.9507e+11
    27.933 4.9566e+11
    27.945 4.9624e+11
    27.958 4.9683e+11
     27.97 4.9742e+11
    27.983   4.98e+11
    27.995 4.9859e+11
    28.007 4.9918e+11
     28.02 4.9977e+11
    28.032 5.0036e+11
    28.045 5.0094e+11
    28.057 5.0153e+11
    28.069 5.0212e+11
    28.082 5.0271e+11
    28.094  5.033e+11
    28.107 5.0389e+11
    28.119 5.0448e+11
    28.131 5.0507e+11
    28.144 5.0566e+11
    28.156 5.0625e+11
    28.169 5.0684e+11
    28.181 5.0743e+11
    28.193 5.0802e+11
    28.206 5.0861e+11
    28.218  5.092e+11
    28.231  5.098e+11
    28.243 5.1039e+11
    28.255 5.1098e+11
    28.268 5.1158e+11
     28.28 5.1217e+11
    28.293 5.1276e+11
    28.305 5.1335e+11
    28.317 5.1395e+11
     28.33 5.1454e+11
    28.342 5.1513e+11
    28.355 5.1573e+11
    28.367 5.1632e+11
    28.379 5.1691e+11
    28.392 5.1751e+11
    28.404 5.1811e+11
    28.417  5.187e+11
    28.429 5.1929e+11
    28.441 5.1989e+11
    28.454 5.2049e+11
    28.466 5.2108e+11
    28.479 5.2168e+11
    28.491 5.2228e+11
    28.503 5.2287e+11
    28.516 5.2347e+11
    28.528 5.2407e+11
    28.541 5.2467e+11
    28.553 5.2526e+11
    28.565 5.2586e+11
    28.578 5.2646e+11
     28.59 5.2706e+11
    28.602 5.2765e+11
    28.615 5.2825e+11
    28.627 5.2885e+11
     28.64 5.2945e+11
    28.652 5.3005e+11
    28.664 5.3065e+11
    28.677 5.3125e+11
    28.689 5.3185e+11
    28.702 5.3245e+11
    28.714 5.3305e+11
    28.726 5.3365e+11
    28.739 5.3425e+11
    28.751 5.3485e+11
    28.764 5.3545e+11
    28.776 5.3605e+11
    28.788 5.3666e+11
    28.801 5.3726e+11
    28.813 5.3786e+11
    28.826 5.3846e+11
    28.838 5.3906e+11
     28.85 5.3967e+11
    28.863 5.4027e+11
    28.875 5.4087e+11
    28.888 5.4148e+11
      28.9 5.4208e+11
    28.912 5.4268e+11
    28.925 5.4329e+11
    28.937 5.4389e+11
     28.95  5.445e+11
    28.962  5.451e+11
    28.974 5.4571e+11
    28.987 5.4631e+11
    28.999 5.4692e+11
    29.012 5.4752e+11
    29.024 5.4813e+11
    29.036 5.4873e+11
    29.049 5.4934e+11
    29.061 5.4994e+11
    29.074 5.5055e+11
    29.086 5.5116e+11
    29.098 5.5176e+11
    29.111 5.5237e+11
    29.123 5.5298e+11
    29.136 5.5359e+11
    29.148  5.542e+11
     29.16  5.548e+11
    29.173 5.5541e+11
    29.185 5.5602e+11
    29.198 5.5663e+11
     29.21 5.5723e+11
    29.222 5.5784e+11
    29.235 5.5846e+11
    29.247 5.5906e+11
     29.26 5.5967e+11
    29.272 5.6028e+11
    29.284 5.6089e+11
    29.297  5.615e+11
    29.309 5.6211e+11
    29.322 5.6272e+11
    29.334 5.6333e+11
    29.346 5.6395e+11
    29.359 5.6455e+11
    29.371 5.6517e+11
    29.384 5.6578e+11
    29.396 5.6639e+11
    29.408   5.67e+11
    29.421 5.6761e+11
    29.433 5.6823e+11
    29.446 5.6884e+11
    29.458 5.6945e+11
     29.47 5.7006e+11
    29.483 5.7068e+11
    29.495 5.7129e+11
    29.508 5.7191e+11
     29.52 5.7252e+11
    29.532 5.7313e+11
    29.545 5.7375e+11
    29.557 5.7436e+11
     29.57 5.7498e+11
    29.582 5.7559e+11
    29.594 5.7621e+11
    29.607 5.7682e+11
    29.619 5.7744e+11
    29.632 5.7805e+11
    29.644 5.7867e+11
    29.656 5.7928e+11
    29.669  5.799e+11
    29.681 5.8051e+11
    29.694 5.8113e+11
    29.706 5.8175e+11
    29.718 5.8237e+11
    29.731 5.8298e+11
    29.743  5.836e+11
    29.756 5.8422e+11
    29.768 5.8483e+11
     29.78 5.8545e+11
    29.793 5.8607e+11
    29.805 5.8669e+11
    29.818  5.873e+11
     29.83 5.8792e+11
    29.842 5.8854e+11
    29.855 5.8916e+11
    29.867 5.8978e+11
     29.88  5.904e+11
    29.892 5.9102e+11
    29.904 5.9164e+11
    29.917 5.9226e+11
    29.929 5.9288e+11
    29.941  5.935e+11
    29.954 5.9412e+11
    29.966 5.9474e+11
    29.979 5.9536e+11
    29.991 5.9598e+11
    30.003  5.966e+11
