RRKM rate, sf=0.970, S*=11.13, E0=2.27 and Delta=2.27
   En (eV)    k (s-1)
         0          0
  0.012398          0
  0.024796          0
  0.037194          0
  0.049593          0
  0.061991          0
  0.074389          0
  0.086787          0
  0.099185          0
   0.11158          0
   0.12398          0
   0.13638          0
   0.14878          0
   0.16118          0
   0.17357          0
   0.18597          0
   0.19837          0
   0.21077          0
   0.22317          0
   0.23556          0
   0.24796          0
   0.26036          0
   0.27276          0
   0.28516          0
   0.29756          0
   0.30995          0
   0.32235          0
   0.33475          0
   0.34715          0
   0.35955          0
   0.37194          0
   0.38434          0
   0.39674          0
   0.40914          0
   0.42154          0
   0.43393          0
   0.44633          0
   0.45873          0
   0.47113          0
   0.48353          0
   0.49593          0
   0.50832          0
   0.52072          0
   0.53312          0
   0.54552          0
   0.55792          0
   0.57031          0
   0.58271          0
   0.59511          0
   0.60751          0
   0.61991          0
    0.6323          0
    0.6447          0
    0.6571          0
    0.6695          0
    0.6819          0
    0.6943          0
   0.70669          0
   0.71909          0
   0.73149          0
   0.74389          0
   0.75629          0
   0.76868          0
   0.78108          0
   0.79348          0
   0.80588          0
   0.81828          0
   0.83067          0
   0.84307          0
   0.85547          0
   0.86787          0
   0.88027          0
   0.89267          0
   0.90506          0
   0.91746          0
   0.92986          0
   0.94226          0
   0.95466          0
   0.96705          0
   0.97945          0
   0.99185          0
    1.0042          0
    1.0166          0
     1.029          0
    1.0414          0
    1.0538          0
    1.0662          0
    1.0786          0
     1.091          0
    1.1034          0
    1.1158          0
    1.1282          0
    1.1406          0
     1.153          0
    1.1654          0
    1.1778          0
    1.1902          0
    1.2026          0
     1.215          0
    1.2274          0
    1.2398          0
    1.2522          0
    1.2646          0
     1.277          0
    1.2894          0
    1.3018          0
    1.3142          0
    1.3266          0
     1.339          0
    1.3514          0
    1.3638          0
    1.3762          0
    1.3886          0
     1.401          0
    1.4134          0
    1.4258          0
    1.4382          0
    1.4506          0
     1.463          0
    1.4754          0
    1.4878          0
    1.5002          0
    1.5126          0
     1.525          0
    1.5374          0
    1.5498          0
    1.5622          0
    1.5746          0
     1.587          0
    1.5994          0
    1.6118          0
    1.6242          0
    1.6366          0
     1.649          0
    1.6613          0
    1.6737          0
    1.6861          0
    1.6985          0
    1.7109          0
    1.7233          0
    1.7357          0
    1.7481          0
    1.7605          0
    1.7729          0
    1.7853          0
    1.7977          0
    1.8101          0
    1.8225          0
    1.8349          0
    1.8473          0
    1.8597          0
    1.8721          0
    1.8845          0
    1.8969          0
    1.9093          0
    1.9217          0
    1.9341          0
    1.9465          0
    1.9589          0
    1.9713          0
    1.9837          0
    1.9961          0
    2.0085          0
    2.0209          0
    2.0333          0
    2.0457          0
    2.0581          0
    2.0705          0
    2.0829          0
    2.0953          0
    2.1077          0
    2.1201          0
    2.1325          0
    2.1449          0
    2.1573          0
    2.1697          0
    2.1821          0
    2.1945          0
    2.2069          0
    2.2193          0
    2.2317          0
    2.2441          0
    2.2565          0
    2.2689 2.8875e-09
    2.2813 7.4472e-09
    2.2937 2.3487e-08
    2.3061 4.5932e-08
    2.3185 9.8064e-08
    2.3308 1.7437e-07
    2.3432 3.1809e-07
    2.3556 5.2918e-07
     2.368 8.7608e-07
    2.3804 1.3845e-06
    2.3928  2.158e-06
    2.4052 3.2769e-06
    2.4176 4.8909e-06
      2.43 7.1778e-06
    2.4424 1.0367e-05
    2.4548 1.4793e-05
    2.4672 2.0817e-05
    2.4796 2.9001e-05
     2.492 3.9932e-05
    2.5044 5.4506e-05
    2.5168 7.3676e-05
    2.5292 9.8806e-05
    2.5416 0.00013142
     2.554 0.00017354
    2.5664 0.00022755
    2.5788 0.00029643
    2.5912 0.00038377
    2.6036 0.00049391
     2.616 0.00063214
    2.6284 0.00080472
    2.6408  0.0010193
    2.6532  0.0012848
    2.6656  0.0016121
     2.678  0.0020137
    2.6904  0.0025048
    2.7028  0.0031029
    2.7152   0.003829
    2.7276  0.0047072
      2.74   0.005766
    2.7524  0.0070385
    2.7648  0.0085629
    2.7772   0.010384
    2.7896   0.012553
     2.802   0.015129
    2.8144    0.01818
    2.8268   0.021785
    2.8392   0.026034
    2.8516   0.031029
     2.864   0.036886
    2.8764    0.04374
    2.8888   0.051742
    2.9012   0.061063
    2.9136   0.071898
     2.926   0.084468
    2.9384    0.09902
    2.9508    0.11583
    2.9632    0.13523
    2.9756    0.15755
     2.988     0.1832
    3.0003    0.21261
    3.0127     0.2463
    3.0251    0.28481
    3.0375    0.32875
    3.0499    0.37882
    3.0623    0.43578
    3.0747    0.50048
    3.0871    0.57386
    3.0995    0.65696
    3.1119    0.75094
    3.1243    0.85708
    3.1367    0.97677
    3.1491     1.1116
    3.1615     1.2632
    3.1739     1.4335
    3.1863     1.6246
    3.1987     1.8387
    3.2111     2.0783
    3.2235     2.3462
    3.2359     2.6452
    3.2483     2.9788
    3.2607     3.3503
    3.2731     3.7638
    3.2855     4.2233
    3.2979     4.7336
    3.3103     5.2997
    3.3227     5.9269
    3.3351     6.6213
    3.3475     7.3892
    3.3599     8.2376
    3.3723      9.174
    3.3847     10.207
    3.3971     11.344
    3.4095     12.597
    3.4219     13.974
    3.4343     15.487
    3.4467     17.148
    3.4591     18.971
    3.4715     20.968
    3.4839     23.155
    3.4963     25.549
    3.5087     28.166
    3.5211     31.025
    3.5335     34.146
    3.5459      37.55
    3.5583     41.261
    3.5707     45.303
    3.5831     49.703
    3.5955     54.488
    3.6079     59.689
    3.6203     65.339
    3.6327      71.47
    3.6451     78.121
    3.6574     85.331
    3.6698     93.141
    3.6822     101.59
    3.6946     110.74
     3.707     120.63
    3.7194     131.32
    3.7318     142.86
    3.7442     155.31
    3.7566     168.74
     3.769     183.22
    3.7814     198.82
    3.7938     215.61
    3.8062     233.69
    3.8186     253.13
     3.831     274.02
    3.8434     296.47
    3.8558     320.58
    3.8682     346.45
    3.8806      374.2
     3.893     403.95
    3.9054     435.83
    3.9178     469.97
    3.9302     506.53
    3.9426     545.64
     3.955     587.46
    3.9674     632.18
    3.9798     679.95
    3.9922     730.97
    4.0046     785.43
     4.017     843.55
    4.0294     905.52
    4.0418     971.59
    4.0542       1042
    4.0666       1117
     4.079     1196.8
    4.0914     1281.8
    4.1038     1372.2
    4.1162     1468.3
    4.1286     1570.4
     4.141     1678.9
    4.1534     1794.2
    4.1658     1916.6
    4.1782     2046.4
    4.1906     2184.2
     4.203     2330.2
    4.2154     2485.1
    4.2278     2649.1
    4.2402     2822.9
    4.2526     3006.9
     4.265     3201.6
    4.2774     3407.7
    4.2898     3625.6
    4.3022     3856.1
    4.3146     4099.6
    4.3269     4356.9
    4.3393     4628.8
    4.3517     4915.7
    4.3641     5218.7
    4.3765     5538.3
    4.3889     5875.5
    4.4013     6231.1
    4.4137     6605.9
    4.4261     7000.9
    4.4385       7417
    4.4509     7855.2
    4.4633     8316.6
    4.4757     8802.3
    4.4881     9313.3
    4.5005     9850.8
    4.5129      10416
    4.5253      11010
    4.5377      11635
    4.5501      12291
    4.5625      12980
    4.5749      13704
    4.5873      14464
    4.5997      15261
    4.6121      16098
    4.6245      16976
    4.6369      17896
    4.6493      18861
    4.6617      19872
    4.6741      20932
    4.6865      22042
    4.6989      23204
    4.7113      24422
    4.7237      25696
    4.7361      27029
    4.7485      28424
    4.7609      29884
    4.7733      31410
    4.7857      33005
    4.7981      34673
    4.8105      36416
    4.8229      38236
    4.8353      40138
    4.8477      42124
    4.8601      44197
    4.8725      46361
    4.8849      48620
    4.8973      50976
    4.9097      53434
    4.9221      55997
    4.9345      58669
    4.9469      61456
    4.9593      64359
    4.9717      67385
     4.984      70537
    4.9964      73819
    5.0088      77238
    5.0212      80797
    5.0336      84502
     5.046      88358
    5.0584      92369
    5.0708      96543
    5.0832 1.0088e+05
    5.0956  1.054e+05
     5.108 1.1009e+05
    5.1204 1.1497e+05
    5.1328 1.2004e+05
    5.1452 1.2531e+05
    5.1576 1.3078e+05
      5.17 1.3647e+05
    5.1824 1.4237e+05
    5.1948  1.485e+05
    5.2072 1.5487e+05
    5.2196 1.6147e+05
     5.232 1.6833e+05
    5.2444 1.7544e+05
    5.2568 1.8282e+05
    5.2692 1.9048e+05
    5.2816 1.9842e+05
     5.294 2.0665e+05
    5.3064 2.1518e+05
    5.3188 2.2403e+05
    5.3312  2.332e+05
    5.3436 2.4269e+05
     5.356 2.5254e+05
    5.3684 2.6273e+05
    5.3808 2.7329e+05
    5.3932 2.8422e+05
    5.4056 2.9554e+05
     5.418 3.0725e+05
    5.4304 3.1938e+05
    5.4428 3.3193e+05
    5.4552 3.4492e+05
    5.4676 3.5835e+05
      5.48 3.7225e+05
    5.4924 3.8662e+05
    5.5048 4.0148e+05
    5.5172 4.1684e+05
    5.5296 4.3273e+05
     5.542 4.4914e+05
    5.5544 4.6611e+05
    5.5668 4.8364e+05
    5.5792 5.0176e+05
    5.5916 5.2047e+05
     5.604  5.398e+05
    5.6164 5.5976e+05
    5.6288 5.8037e+05
    5.6412 6.0164e+05
    5.6535 6.2361e+05
    5.6659 6.4628e+05
    5.6783 6.6968e+05
    5.6907 6.9382e+05
    5.7031 7.1873e+05
    5.7155 7.4442e+05
    5.7279 7.7092e+05
    5.7403 7.9826e+05
    5.7527 8.2645e+05
    5.7651 8.5551e+05
    5.7775 8.8546e+05
    5.7899 9.1635e+05
    5.8023 9.4818e+05
    5.8147 9.8097e+05
    5.8271 1.0148e+06
    5.8395 1.0496e+06
    5.8519 1.0855e+06
    5.8643 1.1224e+06
    5.8767 1.1605e+06
    5.8891 1.1996e+06
    5.9015   1.24e+06
    5.9139 1.2815e+06
    5.9263 1.3243e+06
    5.9387 1.3683e+06
    5.9511 1.4136e+06
    5.9635 1.4602e+06
    5.9759 1.5081e+06
    5.9883 1.5575e+06
    6.0007 1.6082e+06
    6.0131 1.6604e+06
    6.0255 1.7141e+06
    6.0379 1.7693e+06
    6.0503  1.826e+06
    6.0627 1.8844e+06
    6.0751 1.9444e+06
    6.0875  2.006e+06
    6.0999 2.0694e+06
    6.1123 2.1345e+06
    6.1247 2.2014e+06
    6.1371 2.2702e+06
    6.1495 2.3408e+06
    6.1619 2.4134e+06
    6.1743 2.4879e+06
    6.1867 2.5644e+06
    6.1991  2.643e+06
    6.2115 2.7237e+06
    6.2239 2.8066e+06
    6.2363 2.8916e+06
    6.2487 2.9789e+06
    6.2611 3.0685e+06
    6.2735 3.1605e+06
    6.2859 3.2548e+06
    6.2983 3.3516e+06
    6.3107  3.451e+06
     6.323 3.5529e+06
    6.3354 3.6574e+06
    6.3478 3.7646e+06
    6.3602 3.8746e+06
    6.3726 3.9873e+06
     6.385  4.103e+06
    6.3974 4.2215e+06
    6.4098  4.343e+06
    6.4222 4.4676e+06
    6.4346 4.5953e+06
     6.447 4.7262e+06
    6.4594 4.8603e+06
    6.4718 4.9977e+06
    6.4842 5.1385e+06
    6.4966 5.2828e+06
     6.509 5.4306e+06
    6.5214  5.582e+06
    6.5338 5.7371e+06
    6.5462 5.8959e+06
    6.5586 6.0585e+06
     6.571  6.225e+06
    6.5834 6.3955e+06
    6.5958 6.5701e+06
    6.6082 6.7489e+06
    6.6206 6.9318e+06
     6.633 7.1191e+06
    6.6454 7.3107e+06
    6.6578 7.5069e+06
    6.6702 7.7076e+06
    6.6826  7.913e+06
     6.695 8.1231e+06
    6.7074 8.3381e+06
    6.7198  8.558e+06
    6.7322 8.7829e+06
    6.7446  9.013e+06
     6.757 9.2483e+06
    6.7694 9.4889e+06
    6.7818  9.735e+06
    6.7942 9.9866e+06
    6.8066 1.0244e+07
     6.819 1.0507e+07
    6.8314 1.0776e+07
    6.8438  1.105e+07
    6.8562 1.1331e+07
    6.8686 1.1618e+07
     6.881 1.1912e+07
    6.8934 1.2211e+07
    6.9058 1.2518e+07
    6.9182 1.2831e+07
    6.9306  1.315e+07
     6.943 1.3477e+07
    6.9554  1.381e+07
    6.9678 1.4151e+07
    6.9801 1.4499e+07
    6.9925 1.4855e+07
    7.0049 1.5218e+07
    7.0173 1.5588e+07
    7.0297 1.5967e+07
    7.0421 1.6353e+07
    7.0545 1.6747e+07
    7.0669  1.715e+07
    7.0793 1.7561e+07
    7.0917 1.7981e+07
    7.1041 1.8409e+07
    7.1165 1.8846e+07
    7.1289 1.9292e+07
    7.1413 1.9747e+07
    7.1537 2.0211e+07
    7.1661 2.0685e+07
    7.1785 2.1168e+07
    7.1909 2.1661e+07
    7.2033 2.2164e+07
    7.2157 2.2677e+07
    7.2281   2.32e+07
    7.2405 2.3734e+07
    7.2529 2.4278e+07
    7.2653 2.4833e+07
    7.2777 2.5399e+07
    7.2901 2.5976e+07
    7.3025 2.6564e+07
    7.3149 2.7164e+07
    7.3273 2.7775e+07
    7.3397 2.8399e+07
    7.3521 2.9034e+07
    7.3645 2.9681e+07
    7.3769 3.0341e+07
    7.3893 3.1014e+07
    7.4017 3.1699e+07
    7.4141 3.2398e+07
    7.4265 3.3109e+07
    7.4389 3.3834e+07
    7.4513 3.4573e+07
    7.4637 3.5325e+07
    7.4761 3.6092e+07
    7.4885 3.6873e+07
    7.5009 3.7668e+07
    7.5133 3.8478e+07
    7.5257 3.9304e+07
    7.5381 4.0144e+07
    7.5505 4.0999e+07
    7.5629 4.1871e+07
    7.5753 4.2758e+07
    7.5877 4.3661e+07
    7.6001 4.4581e+07
    7.6125 4.5517e+07
    7.6249  4.647e+07
    7.6373 4.7441e+07
    7.6496 4.8428e+07
     7.662 4.9433e+07
    7.6744 5.0457e+07
    7.6868 5.1498e+07
    7.6992 5.2557e+07
    7.7116 5.3636e+07
     7.724 5.4733e+07
    7.7364 5.5849e+07
    7.7488 5.6986e+07
    7.7612 5.8141e+07
    7.7736 5.9317e+07
     7.786 6.0513e+07
    7.7984  6.173e+07
    7.8108 6.2967e+07
    7.8232 6.4226e+07
    7.8356 6.5507e+07
     7.848 6.6809e+07
    7.8604 6.8133e+07
    7.8728  6.948e+07
    7.8852 7.0849e+07
    7.8976 7.2241e+07
      7.91 7.3657e+07
    7.9224 7.5097e+07
    7.9348  7.656e+07
    7.9472 7.8048e+07
    7.9596 7.9561e+07
     7.972 8.1098e+07
    7.9844 8.2661e+07
    7.9968  8.425e+07
    8.0092 8.5864e+07
    8.0216 8.7505e+07
     8.034 8.9173e+07
    8.0464 9.0868e+07
    8.0588 9.2589e+07
    8.0712  9.434e+07
    8.0836 9.6118e+07
     8.096 9.7925e+07
    8.1084  9.976e+07
    8.1208 1.0163e+08
    8.1332 1.0352e+08
    8.1456 1.0544e+08
     8.158  1.074e+08
    8.1704 1.0939e+08
    8.1828  1.114e+08
    8.1952 1.1345e+08
    8.2076 1.1553e+08
      8.22 1.1765e+08
    8.2324 1.1979e+08
    8.2448 1.2197e+08
    8.2572 1.2418e+08
    8.2696 1.2643e+08
     8.282 1.2871e+08
    8.2944 1.3103e+08
    8.3067 1.3338e+08
    8.3191 1.3577e+08
    8.3315 1.3819e+08
    8.3439 1.4065e+08
    8.3563 1.4315e+08
    8.3687 1.4569e+08
    8.3811 1.4826e+08
    8.3935 1.5087e+08
    8.4059 1.5352e+08
    8.4183 1.5622e+08
    8.4307 1.5895e+08
    8.4431 1.6172e+08
    8.4555 1.6453e+08
    8.4679 1.6738e+08
    8.4803 1.7028e+08
    8.4927 1.7322e+08
    8.5051  1.762e+08
    8.5175 1.7922e+08
    8.5299 1.8229e+08
    8.5423  1.854e+08
    8.5547 1.8856e+08
    8.5671 1.9176e+08
    8.5795 1.9501e+08
    8.5919 1.9831e+08
    8.6043 2.0165e+08
    8.6167 2.0504e+08
    8.6291 2.0848e+08
    8.6415 2.1197e+08
    8.6539  2.155e+08
    8.6663 2.1909e+08
    8.6787 2.2273e+08
    8.6911 2.2641e+08
    8.7035 2.3015e+08
    8.7159 2.3394e+08
    8.7283 2.3779e+08
    8.7407 2.4169e+08
    8.7531 2.4564e+08
    8.7655 2.4964e+08
    8.7779  2.537e+08
    8.7903 2.5782e+08
    8.8027 2.6199e+08
    8.8151 2.6622e+08
    8.8275 2.7051e+08
    8.8399 2.7485e+08
    8.8523 2.7926e+08
    8.8647 2.8372e+08
    8.8771 2.8825e+08
    8.8895 2.9283e+08
    8.9019 2.9748e+08
    8.9143 3.0218e+08
    8.9267 3.0695e+08
    8.9391 3.1179e+08
    8.9515 3.1669e+08
    8.9639 3.2165e+08
    8.9762 3.2668e+08
    8.9886 3.3177e+08
     9.001 3.3693e+08
    9.0134 3.4216e+08
    9.0258 3.4746e+08
    9.0382 3.5282e+08
    9.0506 3.5826e+08
     9.063 3.6376e+08
    9.0754 3.6934e+08
    9.0878 3.7499e+08
    9.1002 3.8071e+08
    9.1126  3.865e+08
     9.125 3.9237e+08
    9.1374 3.9831e+08
    9.1498 4.0433e+08
    9.1622 4.1042e+08
    9.1746  4.166e+08
     9.187 4.2285e+08
    9.1994 4.2917e+08
    9.2118 4.3558e+08
    9.2242 4.4207e+08
    9.2366 4.4864e+08
     9.249 4.5529e+08
    9.2614 4.6202e+08
    9.2738 4.6884e+08
    9.2862 4.7573e+08
    9.2986 4.8272e+08
     9.311 4.8979e+08
    9.3234 4.9695e+08
    9.3358 5.0419e+08
    9.3482 5.1153e+08
    9.3606 5.1895e+08
     9.373 5.2646e+08
    9.3854 5.3407e+08
    9.3978 5.4176e+08
    9.4102 5.4955e+08
    9.4226 5.5743e+08
     9.435 5.6541e+08
    9.4474 5.7348e+08
    9.4598 5.8165e+08
    9.4722 5.8991e+08
    9.4846 5.9827e+08
     9.497 6.0673e+08
    9.5094 6.1529e+08
    9.5218 6.2396e+08
    9.5342 6.3272e+08
    9.5466 6.4159e+08
     9.559 6.5056e+08
    9.5714 6.5964e+08
    9.5838 6.6881e+08
    9.5962  6.781e+08
    9.6086  6.875e+08
     9.621   6.97e+08
    9.6333 7.0661e+08
    9.6457 7.1633e+08
    9.6581 7.2617e+08
    9.6705 7.3611e+08
    9.6829 7.4617e+08
    9.6953 7.5635e+08
    9.7077 7.6664e+08
    9.7201 7.7704e+08
    9.7325 7.8757e+08
    9.7449 7.9821e+08
    9.7573 8.0897e+08
    9.7697 8.1985e+08
    9.7821 8.3086e+08
    9.7945 8.4198e+08
    9.8069 8.5323e+08
    9.8193 8.6461e+08
    9.8317 8.7611e+08
    9.8441 8.8774e+08
    9.8565  8.995e+08
    9.8689 9.1138e+08
    9.8813  9.234e+08
    9.8937 9.3554e+08
    9.9061 9.4782e+08
    9.9185 9.6024e+08
    9.9309 9.7279e+08
    9.9433 9.8547e+08
    9.9557 9.9829e+08
    9.9681 1.0112e+09
    9.9805 1.0243e+09
    9.9929 1.0376e+09
    10.005  1.051e+09
    10.018 1.0645e+09
     10.03 1.0782e+09
    10.042  1.092e+09
    10.055 1.1059e+09
    10.067 1.1201e+09
     10.08 1.1343e+09
    10.092 1.1487e+09
    10.104 1.1633e+09
    10.117  1.178e+09
    10.129 1.1929e+09
    10.142 1.2079e+09
    10.154 1.2231e+09
    10.166 1.2384e+09
    10.179 1.2539e+09
    10.191 1.2695e+09
    10.204 1.2854e+09
    10.216 1.3013e+09
    10.228 1.3175e+09
    10.241 1.3338e+09
    10.253 1.3503e+09
    10.266 1.3669e+09
    10.278 1.3837e+09
     10.29 1.4007e+09
    10.303 1.4178e+09
    10.315 1.4352e+09
    10.328 1.4527e+09
     10.34 1.4704e+09
    10.352 1.4882e+09
    10.365 1.5062e+09
    10.377 1.5245e+09
     10.39 1.5428e+09
    10.402 1.5614e+09
    10.414 1.5802e+09
    10.427 1.5991e+09
    10.439 1.6183e+09
    10.452 1.6376e+09
    10.464 1.6571e+09
    10.476 1.6768e+09
    10.489 1.6967e+09
    10.501 1.7168e+09
    10.514 1.7371e+09
    10.526 1.7576e+09
    10.538 1.7783e+09
    10.551 1.7991e+09
    10.563 1.8202e+09
    10.576 1.8415e+09
    10.588  1.863e+09
      10.6 1.8847e+09
    10.613 1.9066e+09
    10.625 1.9287e+09
    10.638  1.951e+09
     10.65 1.9736e+09
    10.662 1.9963e+09
    10.675 2.0193e+09
    10.687 2.0425e+09
      10.7 2.0659e+09
    10.712 2.0895e+09
    10.724 2.1134e+09
    10.737 2.1374e+09
    10.749 2.1617e+09
    10.762 2.1862e+09
    10.774  2.211e+09
    10.786 2.2359e+09
    10.799 2.2611e+09
    10.811 2.2866e+09
    10.824 2.3122e+09
    10.836 2.3382e+09
    10.848 2.3643e+09
    10.861 2.3907e+09
    10.873 2.4173e+09
    10.886 2.4442e+09
    10.898 2.4713e+09
     10.91 2.4986e+09
    10.923 2.5262e+09
    10.935 2.5541e+09
    10.948 2.5822e+09
     10.96 2.6106e+09
    10.972 2.6392e+09
    10.985 2.6681e+09
    10.997 2.6972e+09
     11.01 2.7265e+09
    11.022 2.7562e+09
    11.034 2.7861e+09
    11.047 2.8163e+09
    11.059 2.8467e+09
    11.072 2.8774e+09
    11.084 2.9084e+09
    11.096 2.9397e+09
    11.109 2.9712e+09
    11.121  3.003e+09
    11.134 3.0351e+09
    11.146 3.0674e+09
    11.158 3.1001e+09
    11.171  3.133e+09
    11.183 3.1662e+09
    11.196 3.1997e+09
    11.208 3.2335e+09
     11.22 3.2675e+09
    11.233 3.3019e+09
    11.245 3.3366e+09
    11.258 3.3715e+09
     11.27 3.4068e+09
    11.282 3.4423e+09
    11.295 3.4782e+09
    11.307 3.5143e+09
    11.319 3.5508e+09
    11.332 3.5876e+09
    11.344 3.6246e+09
    11.357  3.662e+09
    11.369 3.6997e+09
    11.381 3.7378e+09
    11.394 3.7761e+09
    11.406 3.8147e+09
    11.419 3.8537e+09
    11.431  3.893e+09
    11.443 3.9326e+09
    11.456 3.9726e+09
    11.468 4.0129e+09
    11.481 4.0535e+09
    11.493 4.0944e+09
    11.505 4.1357e+09
    11.518 4.1773e+09
     11.53 4.2193e+09
    11.543 4.2616e+09
    11.555 4.3042e+09
    11.567 4.3472e+09
     11.58 4.3905e+09
    11.592 4.4342e+09
    11.605 4.4783e+09
    11.617 4.5226e+09
    11.629 4.5674e+09
    11.642 4.6125e+09
    11.654 4.6579e+09
    11.667 4.7038e+09
    11.679   4.75e+09
    11.691 4.7965e+09
    11.704 4.8434e+09
    11.716 4.8907e+09
    11.729 4.9384e+09
    11.741 4.9864e+09
    11.753 5.0349e+09
    11.766 5.0837e+09
    11.778 5.1329e+09
    11.791 5.1824e+09
    11.803 5.2324e+09
    11.815 5.2827e+09
    11.828 5.3334e+09
     11.84 5.3846e+09
    11.853 5.4361e+09
    11.865  5.488e+09
    11.877 5.5403e+09
     11.89  5.593e+09
    11.902 5.6461e+09
    11.915 5.6997e+09
    11.927 5.7536e+09
    11.939  5.808e+09
    11.952 5.8627e+09
    11.964 5.9179e+09
    11.977 5.9735e+09
    11.989 6.0295e+09
    12.001  6.086e+09
    12.014 6.1428e+09
    12.026 6.2001e+09
    12.039 6.2578e+09
    12.051  6.316e+09
    12.063 6.3746e+09
    12.076 6.4336e+09
    12.088  6.493e+09
    12.101 6.5529e+09
    12.113 6.6133e+09
    12.125 6.6741e+09
    12.138 6.7353e+09
     12.15  6.797e+09
    12.163 6.8591e+09
    12.175 6.9218e+09
    12.187 6.9848e+09
      12.2 7.0484e+09
    12.212 7.1123e+09
    12.225 7.1768e+09
    12.237 7.2417e+09
    12.249 7.3071e+09
    12.262  7.373e+09
    12.274 7.4393e+09
    12.287 7.5061e+09
    12.299 7.5734e+09
    12.311 7.6412e+09
    12.324 7.7095e+09
    12.336 7.7782e+09
    12.349 7.8474e+09
    12.361 7.9172e+09
    12.373 7.9874e+09
    12.386 8.0582e+09
    12.398 8.1294e+09
    12.411 8.2012e+09
    12.423 8.2734e+09
    12.435 8.3461e+09
    12.448 8.4194e+09
     12.46 8.4931e+09
    12.473 8.5674e+09
    12.485 8.6422e+09
    12.497 8.7176e+09
     12.51 8.7934e+09
    12.522 8.8698e+09
    12.535 8.9467e+09
    12.547 9.0242e+09
    12.559 9.1021e+09
    12.572 9.1806e+09
    12.584 9.2597e+09
    12.597 9.3393e+09
    12.609 9.4195e+09
    12.621 9.5001e+09
    12.634 9.5814e+09
    12.646 9.6632e+09
    12.658 9.7455e+09
    12.671 9.8284e+09
    12.683 9.9119e+09
    12.696  9.996e+09
    12.708 1.0081e+10
     12.72 1.0166e+10
    12.733 1.0251e+10
    12.745 1.0338e+10
    12.758 1.0425e+10
     12.77 1.0512e+10
    12.782   1.06e+10
    12.795 1.0689e+10
    12.807 1.0778e+10
     12.82 1.0868e+10
    12.832 1.0958e+10
    12.844 1.1049e+10
    12.857 1.1141e+10
    12.869 1.1233e+10
    12.882 1.1326e+10
    12.894  1.142e+10
    12.906 1.1514e+10
    12.919 1.1608e+10
    12.931 1.1704e+10
    12.944 1.1799e+10
    12.956 1.1896e+10
    12.968 1.1993e+10
    12.981 1.2091e+10
    12.993 1.2189e+10
    13.006 1.2288e+10
    13.018 1.2388e+10
     13.03 1.2489e+10
    13.043 1.2589e+10
    13.055 1.2691e+10
    13.068 1.2793e+10
     13.08 1.2896e+10
    13.092    1.3e+10
    13.105 1.3104e+10
    13.117 1.3209e+10
     13.13 1.3315e+10
    13.142 1.3421e+10
    13.154 1.3528e+10
    13.167 1.3635e+10
    13.179 1.3744e+10
    13.192 1.3852e+10
    13.204 1.3962e+10
    13.216 1.4072e+10
    13.229 1.4183e+10
    13.241 1.4295e+10
    13.254 1.4407e+10
    13.266  1.452e+10
    13.278 1.4634e+10
    13.291 1.4749e+10
    13.303 1.4864e+10
    13.316  1.498e+10
    13.328 1.5096e+10
     13.34 1.5214e+10
    13.353 1.5332e+10
    13.365  1.545e+10
    13.378  1.557e+10
     13.39  1.569e+10
    13.402 1.5811e+10
    13.415 1.5933e+10
    13.427 1.6055e+10
     13.44 1.6178e+10
    13.452 1.6302e+10
    13.464 1.6427e+10
    13.477 1.6552e+10
    13.489 1.6678e+10
    13.502 1.6805e+10
    13.514 1.6933e+10
    13.526 1.7061e+10
    13.539  1.719e+10
    13.551  1.732e+10
    13.564 1.7451e+10
    13.576 1.7583e+10
    13.588 1.7715e+10
    13.601 1.7848e+10
    13.613 1.7982e+10
    13.626 1.8116e+10
    13.638 1.8252e+10
     13.65 1.8388e+10
    13.663 1.8525e+10
    13.675 1.8663e+10
    13.688 1.8801e+10
      13.7 1.8941e+10
    13.712 1.9081e+10
    13.725 1.9222e+10
    13.737 1.9364e+10
     13.75 1.9507e+10
    13.762  1.965e+10
    13.774 1.9795e+10
    13.787  1.994e+10
    13.799 2.0086e+10
    13.812 2.0233e+10
    13.824  2.038e+10
    13.836 2.0529e+10
    13.849 2.0678e+10
    13.861 2.0828e+10
    13.874 2.0979e+10
    13.886 2.1131e+10
    13.898 2.1284e+10
    13.911 2.1438e+10
    13.923 2.1592e+10
    13.936 2.1748e+10
    13.948 2.1904e+10
     13.96 2.2061e+10
    13.973 2.2219e+10
    13.985 2.2378e+10
    13.997 2.2538e+10
     14.01 2.2698e+10
    14.022  2.286e+10
    14.035 2.3022e+10
    14.047 2.3186e+10
    14.059  2.335e+10
    14.072 2.3515e+10
    14.084 2.3681e+10
    14.097 2.3848e+10
    14.109 2.4016e+10
    14.121 2.4185e+10
    14.134 2.4355e+10
    14.146 2.4525e+10
    14.159 2.4697e+10
    14.171  2.487e+10
    14.183 2.5043e+10
    14.196 2.5218e+10
    14.208 2.5393e+10
    14.221 2.5569e+10
    14.233 2.5746e+10
    14.245 2.5925e+10
    14.258 2.6104e+10
     14.27 2.6284e+10
    14.283 2.6465e+10
    14.295 2.6647e+10
    14.307  2.683e+10
     14.32 2.7014e+10
    14.332 2.7199e+10
    14.345 2.7385e+10
    14.357 2.7572e+10
    14.369  2.776e+10
    14.382 2.7949e+10
    14.394 2.8139e+10
    14.407  2.833e+10
    14.419 2.8522e+10
    14.431 2.8715e+10
    14.444 2.8909e+10
    14.456 2.9104e+10
    14.469   2.93e+10
    14.481 2.9497e+10
    14.493 2.9696e+10
    14.506 2.9894e+10
    14.518 3.0095e+10
    14.531 3.0296e+10
    14.543 3.0498e+10
    14.555 3.0701e+10
    14.568 3.0906e+10
     14.58 3.1111e+10
    14.593 3.1318e+10
    14.605 3.1525e+10
    14.617 3.1733e+10
     14.63 3.1943e+10
    14.642 3.2154e+10
    14.655 3.2366e+10
    14.667 3.2578e+10
    14.679 3.2792e+10
    14.692 3.3007e+10
    14.704 3.3223e+10
    14.717 3.3441e+10
    14.729 3.3659e+10
    14.741 3.3878e+10
    14.754 3.4099e+10
    14.766  3.432e+10
    14.779 3.4543e+10
    14.791 3.4767e+10
    14.803 3.4992e+10
    14.816 3.5218e+10
    14.828 3.5445e+10
    14.841 3.5673e+10
    14.853 3.5903e+10
    14.865 3.6133e+10
    14.878 3.6365e+10
     14.89 3.6598e+10
    14.903 3.6832e+10
    14.915 3.7067e+10
    14.927 3.7303e+10
     14.94 3.7541e+10
    14.952 3.7779e+10
    14.965 3.8019e+10
    14.977  3.826e+10
    14.989 3.8502e+10
    15.002 3.8746e+10
    15.014  3.899e+10
    15.027 3.9236e+10
    15.039 3.9482e+10
    15.051 3.9731e+10
    15.064  3.998e+10
    15.076  4.023e+10
    15.089 4.0482e+10
    15.101 4.0735e+10
    15.113 4.0989e+10
    15.126 4.1244e+10
    15.138 4.1501e+10
    15.151 4.1758e+10
    15.163 4.2017e+10
    15.175 4.2277e+10
    15.188 4.2539e+10
      15.2 4.2802e+10
    15.213 4.3065e+10
    15.225  4.333e+10
    15.237 4.3597e+10
     15.25 4.3865e+10
    15.262 4.4134e+10
    15.275 4.4404e+10
    15.287 4.4675e+10
    15.299 4.4948e+10
    15.312 4.5222e+10
    15.324 4.5497e+10
    15.336 4.5774e+10
    15.349 4.6051e+10
    15.361 4.6331e+10
    15.374 4.6611e+10
    15.386 4.6893e+10
    15.398 4.7176e+10
    15.411  4.746e+10
    15.423 4.7746e+10
    15.436 4.8032e+10
    15.448 4.8321e+10
     15.46  4.861e+10
    15.473 4.8901e+10
    15.485 4.9193e+10
    15.498 4.9487e+10
     15.51 4.9782e+10
    15.522 5.0078e+10
    15.535 5.0375e+10
    15.547 5.0674e+10
     15.56 5.0975e+10
    15.572 5.1276e+10
    15.584 5.1579e+10
    15.597 5.1883e+10
    15.609 5.2189e+10
    15.622 5.2496e+10
    15.634 5.2805e+10
    15.646 5.3114e+10
    15.659 5.3426e+10
    15.671 5.3738e+10
    15.684 5.4052e+10
    15.696 5.4368e+10
    15.708 5.4684e+10
    15.721 5.5002e+10
    15.733 5.5322e+10
    15.746 5.5643e+10
    15.758 5.5966e+10
     15.77 5.6289e+10
    15.783 5.6614e+10
    15.795 5.6941e+10
    15.808 5.7269e+10
     15.82 5.7598e+10
    15.832  5.793e+10
    15.845 5.8262e+10
    15.857 5.8596e+10
     15.87 5.8931e+10
    15.882 5.9268e+10
    15.894 5.9606e+10
    15.907 5.9946e+10
    15.919 6.0287e+10
    15.932 6.0629e+10
    15.944 6.0974e+10
    15.956 6.1319e+10
    15.969 6.1666e+10
    15.981 6.2015e+10
    15.994 6.2365e+10
    16.006 6.2716e+10
    16.018 6.3069e+10
    16.031 6.3424e+10
    16.043  6.378e+10
    16.056 6.4137e+10
    16.068 6.4496e+10
     16.08 6.4857e+10
    16.093 6.5219e+10
    16.105 6.5583e+10
    16.118 6.5948e+10
     16.13 6.6314e+10
    16.142 6.6682e+10
    16.155 6.7052e+10
    16.167 6.7423e+10
     16.18 6.7796e+10
    16.192 6.8171e+10
    16.204 6.8547e+10
    16.217 6.8924e+10
    16.229 6.9303e+10
    16.242 6.9684e+10
    16.254 7.0066e+10
    16.266  7.045e+10
    16.279 7.0835e+10
    16.291 7.1223e+10
    16.304 7.1611e+10
    16.316 7.2001e+10
    16.328 7.2393e+10
    16.341 7.2786e+10
    16.353 7.3181e+10
    16.366 7.3578e+10
    16.378 7.3976e+10
     16.39 7.4376e+10
    16.403 7.4777e+10
    16.415  7.518e+10
    16.428 7.5585e+10
     16.44 7.5991e+10
    16.452 7.6399e+10
    16.465 7.6809e+10
    16.477  7.722e+10
     16.49 7.7633e+10
    16.502 7.8048e+10
    16.514 7.8464e+10
    16.527 7.8882e+10
    16.539 7.9301e+10
    16.552 7.9723e+10
    16.564 8.0146e+10
    16.576 8.0571e+10
    16.589 8.0996e+10
    16.601 8.1424e+10
    16.613 8.1854e+10
    16.626 8.2285e+10
    16.638 8.2719e+10
    16.651 8.3153e+10
    16.663  8.359e+10
    16.675 8.4028e+10
    16.688 8.4468e+10
      16.7 8.4909e+10
    16.713 8.5353e+10
    16.725 8.5798e+10
    16.737 8.6245e+10
     16.75 8.6693e+10
    16.762 8.7144e+10
    16.775 8.7596e+10
    16.787 8.8049e+10
    16.799 8.8505e+10
    16.812 8.8963e+10
    16.824 8.9421e+10
    16.837 8.9882e+10
    16.849 9.0345e+10
    16.861  9.081e+10
    16.874 9.1276e+10
    16.886 9.1744e+10
    16.899 9.2213e+10
    16.911 9.2685e+10
    16.923 9.3158e+10
    16.936 9.3633e+10
    16.948  9.411e+10
    16.961 9.4589e+10
    16.973  9.507e+10
    16.985 9.5552e+10
    16.998 9.6036e+10
     17.01 9.6522e+10
    17.023  9.701e+10
    17.035   9.75e+10
    17.047 9.7992e+10
     17.06 9.8485e+10
    17.072  9.898e+10
    17.085 9.9477e+10
    17.097 9.9976e+10
    17.109 1.0048e+11
    17.122 1.0098e+11
    17.134 1.0148e+11
    17.147 1.0199e+11
    17.159  1.025e+11
    17.171 1.0301e+11
    17.184 1.0352e+11
    17.196 1.0403e+11
    17.209 1.0455e+11
    17.221 1.0507e+11
    17.233 1.0559e+11
    17.246 1.0611e+11
    17.258 1.0663e+11
    17.271 1.0716e+11
    17.283 1.0769e+11
    17.295 1.0821e+11
    17.308 1.0875e+11
     17.32 1.0928e+11
    17.333 1.0981e+11
    17.345 1.1035e+11
    17.357 1.1089e+11
     17.37 1.1143e+11
    17.382 1.1197e+11
    17.395 1.1252e+11
    17.407 1.1306e+11
    17.419 1.1361e+11
    17.432 1.1416e+11
    17.444 1.1472e+11
    17.457 1.1527e+11
    17.469 1.1583e+11
    17.481 1.1639e+11
    17.494 1.1695e+11
    17.506 1.1751e+11
    17.519 1.1807e+11
    17.531 1.1864e+11
    17.543 1.1921e+11
    17.556 1.1978e+11
    17.568 1.2035e+11
    17.581 1.2093e+11
    17.593  1.215e+11
    17.605 1.2208e+11
    17.618 1.2266e+11
     17.63 1.2324e+11
    17.643 1.2383e+11
    17.655 1.2442e+11
    17.667 1.2501e+11
     17.68  1.256e+11
    17.692 1.2619e+11
    17.705 1.2678e+11
    17.717 1.2738e+11
    17.729 1.2798e+11
    17.742 1.2858e+11
    17.754 1.2918e+11
    17.767 1.2979e+11
    17.779  1.304e+11
    17.791 1.3101e+11
    17.804 1.3162e+11
    17.816 1.3223e+11
    17.829 1.3285e+11
    17.841 1.3346e+11
    17.853 1.3408e+11
    17.866 1.3471e+11
    17.878 1.3533e+11
    17.891 1.3596e+11
    17.903 1.3659e+11
    17.915 1.3722e+11
    17.928 1.3785e+11
     17.94 1.3848e+11
    17.952 1.3912e+11
    17.965 1.3976e+11
    17.977  1.404e+11
     17.99 1.4104e+11
    18.002 1.4169e+11
    18.014 1.4234e+11
    18.027 1.4299e+11
    18.039 1.4364e+11
    18.052 1.4429e+11
    18.064 1.4495e+11
    18.076 1.4561e+11
    18.089 1.4627e+11
    18.101 1.4693e+11
    18.114  1.476e+11
    18.126 1.4827e+11
    18.138 1.4894e+11
    18.151 1.4961e+11
    18.163 1.5028e+11
    18.176 1.5096e+11
    18.188 1.5164e+11
      18.2 1.5232e+11
    18.213   1.53e+11
    18.225 1.5369e+11
    18.238 1.5437e+11
     18.25 1.5506e+11
    18.262 1.5575e+11
    18.275 1.5645e+11
    18.287 1.5714e+11
      18.3 1.5784e+11
    18.312 1.5854e+11
    18.324 1.5925e+11
    18.337 1.5995e+11
    18.349 1.6066e+11
    18.362 1.6137e+11
    18.374 1.6208e+11
    18.386  1.628e+11
    18.399 1.6351e+11
    18.411 1.6423e+11
    18.424 1.6495e+11
    18.436 1.6568e+11
    18.448  1.664e+11
    18.461 1.6713e+11
    18.473 1.6786e+11
    18.486  1.686e+11
    18.498 1.6933e+11
     18.51 1.7007e+11
    18.523 1.7081e+11
    18.535 1.7155e+11
    18.548  1.723e+11
     18.56 1.7304e+11
    18.572 1.7379e+11
    18.585 1.7455e+11
    18.597  1.753e+11
     18.61 1.7606e+11
    18.622 1.7681e+11
    18.634 1.7758e+11
    18.647 1.7834e+11
    18.659 1.7911e+11
    18.672 1.7987e+11
    18.684 1.8064e+11
    18.696 1.8142e+11
    18.709 1.8219e+11
    18.721 1.8297e+11
    18.734 1.8375e+11
    18.746 1.8453e+11
    18.758 1.8532e+11
    18.771 1.8611e+11
    18.783  1.869e+11
    18.796 1.8769e+11
    18.808 1.8848e+11
     18.82 1.8928e+11
    18.833 1.9008e+11
    18.845 1.9088e+11
    18.858 1.9169e+11
     18.87 1.9249e+11
    18.882  1.933e+11
    18.895 1.9412e+11
    18.907 1.9493e+11
     18.92 1.9575e+11
    18.932 1.9657e+11
    18.944 1.9739e+11
    18.957 1.9821e+11
    18.969 1.9904e+11
    18.982 1.9987e+11
    18.994  2.007e+11
    19.006 2.0153e+11
    19.019 2.0237e+11
    19.031 2.0321e+11
    19.044 2.0405e+11
    19.056  2.049e+11
    19.068 2.0574e+11
    19.081 2.0659e+11
    19.093 2.0744e+11
    19.106  2.083e+11
    19.118 2.0915e+11
     19.13 2.1001e+11
    19.143 2.1088e+11
    19.155 2.1174e+11
    19.168 2.1261e+11
     19.18 2.1348e+11
    19.192 2.1435e+11
    19.205 2.1522e+11
    19.217  2.161e+11
     19.23 2.1698e+11
    19.242 2.1786e+11
    19.254 2.1875e+11
    19.267 2.1963e+11
    19.279 2.2052e+11
    19.291 2.2142e+11
    19.304 2.2231e+11
    19.316 2.2321e+11
    19.329 2.2411e+11
    19.341 2.2501e+11
    19.353 2.2592e+11
    19.366 2.2683e+11
    19.378 2.2774e+11
    19.391 2.2865e+11
    19.403 2.2957e+11
    19.415 2.3049e+11
    19.428 2.3141e+11
     19.44 2.3233e+11
    19.453 2.3326e+11
    19.465 2.3419e+11
    19.477 2.3512e+11
     19.49 2.3605e+11
    19.502 2.3699e+11
    19.515 2.3793e+11
    19.527 2.3887e+11
    19.539 2.3982e+11
    19.552 2.4077e+11
    19.564 2.4172e+11
    19.577 2.4267e+11
    19.589 2.4362e+11
    19.601 2.4458e+11
    19.614 2.4555e+11
    19.626 2.4651e+11
    19.639 2.4748e+11
    19.651 2.4844e+11
    19.663 2.4942e+11
    19.676 2.5039e+11
    19.688 2.5137e+11
    19.701 2.5235e+11
    19.713 2.5333e+11
    19.725 2.5432e+11
    19.738 2.5531e+11
     19.75  2.563e+11
    19.763 2.5729e+11
    19.775 2.5829e+11
    19.787 2.5929e+11
      19.8 2.6029e+11
    19.812 2.6129e+11
    19.825  2.623e+11
    19.837 2.6331e+11
    19.849 2.6432e+11
    19.862 2.6534e+11
    19.874 2.6636e+11
    19.887 2.6738e+11
    19.899  2.684e+11
    19.911 2.6943e+11
    19.924 2.7046e+11
    19.936 2.7149e+11
    19.949 2.7253e+11
    19.961 2.7357e+11
    19.973 2.7461e+11
    19.986 2.7565e+11
    19.998  2.767e+11
    20.011 2.7775e+11
    20.023  2.788e+11
    20.035 2.7985e+11
    20.048 2.8091e+11
     20.06 2.8197e+11
    20.073 2.8304e+11
    20.085  2.841e+11
    20.097 2.8517e+11
     20.11 2.8624e+11
    20.122 2.8732e+11
    20.135  2.884e+11
    20.147 2.8948e+11
    20.159 2.9056e+11
    20.172 2.9165e+11
    20.184 2.9273e+11
    20.197 2.9383e+11
    20.209 2.9492e+11
    20.221 2.9602e+11
    20.234 2.9712e+11
    20.246 2.9822e+11
    20.259 2.9933e+11
    20.271 3.0044e+11
    20.283 3.0155e+11
    20.296 3.0267e+11
    20.308 3.0378e+11
    20.321  3.049e+11
    20.333 3.0603e+11
    20.345 3.0716e+11
    20.358 3.0828e+11
     20.37 3.0942e+11
    20.383 3.1055e+11
    20.395 3.1169e+11
    20.407 3.1283e+11
     20.42 3.1398e+11
    20.432 3.1512e+11
    20.445 3.1628e+11
    20.457 3.1743e+11
    20.469 3.1858e+11
    20.482 3.1974e+11
    20.494  3.209e+11
    20.507 3.2207e+11
    20.519 3.2324e+11
    20.531 3.2441e+11
    20.544 3.2558e+11
    20.556 3.2676e+11
    20.569 3.2794e+11
    20.581 3.2912e+11
    20.593 3.3031e+11
    20.606  3.315e+11
    20.618 3.3269e+11
     20.63 3.3388e+11
    20.643 3.3508e+11
    20.655 3.3628e+11
    20.668 3.3749e+11
     20.68 3.3869e+11
    20.692  3.399e+11
    20.705 3.4111e+11
    20.717 3.4233e+11
     20.73 3.4355e+11
    20.742 3.4477e+11
    20.754   3.46e+11
    20.767 3.4722e+11
    20.779 3.4846e+11
    20.792 3.4969e+11
    20.804 3.5093e+11
    20.816 3.5217e+11
    20.829 3.5341e+11
    20.841 3.5466e+11
    20.854 3.5591e+11
    20.866 3.5716e+11
    20.878 3.5841e+11
    20.891 3.5967e+11
    20.903 3.6093e+11
    20.916  3.622e+11
    20.928 3.6347e+11
     20.94 3.6474e+11
    20.953 3.6601e+11
    20.965 3.6729e+11
    20.978 3.6857e+11
     20.99 3.6985e+11
    21.002 3.7114e+11
    21.015 3.7243e+11
    21.027 3.7372e+11
     21.04 3.7502e+11
    21.052 3.7632e+11
    21.064 3.7762e+11
    21.077 3.7892e+11
    21.089 3.8023e+11
    21.102 3.8154e+11
    21.114 3.8286e+11
    21.126 3.8418e+11
    21.139  3.855e+11
    21.151 3.8682e+11
    21.164 3.8815e+11
    21.176 3.8948e+11
    21.188 3.9081e+11
    21.201 3.9215e+11
    21.213 3.9349e+11
    21.226 3.9483e+11
    21.238 3.9618e+11
     21.25 3.9753e+11
    21.263 3.9888e+11
    21.275 4.0024e+11
    21.288  4.016e+11
      21.3 4.0296e+11
    21.312 4.0433e+11
    21.325  4.057e+11
    21.337 4.0707e+11
     21.35 4.0844e+11
    21.362 4.0982e+11
    21.374  4.112e+11
    21.387 4.1258e+11
    21.399 4.1397e+11
    21.412 4.1536e+11
    21.424 4.1676e+11
    21.436 4.1815e+11
    21.449 4.1956e+11
    21.461 4.2096e+11
    21.474 4.2237e+11
    21.486 4.2378e+11
    21.498 4.2519e+11
    21.511 4.2661e+11
    21.523 4.2803e+11
    21.536 4.2945e+11
    21.548 4.3088e+11
     21.56 4.3231e+11
    21.573 4.3374e+11
    21.585 4.3518e+11
    21.598 4.3662e+11
     21.61 4.3806e+11
    21.622 4.3951e+11
    21.635 4.4096e+11
    21.647 4.4241e+11
     21.66 4.4387e+11
    21.672 4.4533e+11
    21.684 4.4679e+11
    21.697 4.4826e+11
    21.709 4.4973e+11
    21.722  4.512e+11
    21.734 4.5268e+11
    21.746 4.5416e+11
    21.759 4.5564e+11
    21.771 4.5713e+11
    21.784 4.5862e+11
    21.796 4.6011e+11
    21.808  4.616e+11
    21.821  4.631e+11
    21.833 4.6461e+11
    21.846 4.6611e+11
    21.858 4.6762e+11
     21.87 4.6914e+11
    21.883 4.7065e+11
    21.895 4.7217e+11
    21.908  4.737e+11
     21.92 4.7522e+11
    21.932 4.7675e+11
    21.945 4.7828e+11
    21.957 4.7982e+11
    21.969 4.8136e+11
    21.982  4.829e+11
    21.994 4.8445e+11
    22.007   4.86e+11
    22.019 4.8755e+11
    22.031 4.8911e+11
    22.044 4.9067e+11
    22.056 4.9224e+11
    22.069  4.938e+11
    22.081 4.9537e+11
    22.093 4.9694e+11
    22.106 4.9852e+11
    22.118  5.001e+11
    22.131 5.0169e+11
    22.143 5.0327e+11
    22.155 5.0487e+11
    22.168 5.0646e+11
     22.18 5.0806e+11
    22.193 5.0966e+11
    22.205 5.1127e+11
    22.217 5.1287e+11
     22.23 5.1448e+11
    22.242  5.161e+11
    22.255 5.1772e+11
    22.267 5.1934e+11
    22.279 5.2096e+11
    22.292 5.2259e+11
    22.304 5.2423e+11
    22.317 5.2586e+11
    22.329  5.275e+11
    22.341 5.2914e+11
    22.354 5.3079e+11
    22.366 5.3244e+11
    22.379 5.3409e+11
    22.391 5.3575e+11
    22.403 5.3741e+11
    22.416 5.3907e+11
    22.428 5.4074e+11
    22.441 5.4241e+11
    22.453 5.4408e+11
    22.465 5.4576e+11
    22.478 5.4744e+11
     22.49 5.4913e+11
    22.503 5.5082e+11
    22.515 5.5251e+11
    22.527  5.542e+11
     22.54  5.559e+11
    22.552  5.576e+11
    22.565 5.5931e+11
    22.577 5.6102e+11
    22.589 5.6273e+11
    22.602 5.6445e+11
    22.614 5.6617e+11
    22.627 5.6789e+11
    22.639 5.6962e+11
    22.651 5.7135e+11
    22.664 5.7308e+11
    22.676 5.7482e+11
    22.689 5.7656e+11
    22.701 5.7831e+11
    22.713 5.8006e+11
    22.726 5.8181e+11
    22.738 5.8356e+11
    22.751 5.8532e+11
    22.763 5.8709e+11
    22.775 5.8885e+11
    22.788 5.9062e+11
      22.8  5.924e+11
    22.813 5.9417e+11
    22.825 5.9595e+11
    22.837 5.9774e+11
     22.85 5.9952e+11
    22.862 6.0132e+11
    22.875 6.0311e+11
    22.887 6.0491e+11
    22.899 6.0672e+11
    22.912 6.0852e+11
    22.924 6.1033e+11
    22.937 6.1214e+11
    22.949 6.1396e+11
    22.961 6.1578e+11
    22.974  6.176e+11
    22.986 6.1943e+11
    22.999 6.2126e+11
    23.011  6.231e+11
    23.023 6.2494e+11
    23.036 6.2678e+11
    23.048 6.2862e+11
    23.061 6.3047e+11
    23.073 6.3233e+11
    23.085 6.3418e+11
    23.098 6.3604e+11
     23.11 6.3791e+11
    23.123 6.3977e+11
    23.135 6.4165e+11
    23.147 6.4352e+11
     23.16  6.454e+11
    23.172 6.4728e+11
    23.185 6.4917e+11
    23.197 6.5106e+11
    23.209 6.5295e+11
    23.222 6.5485e+11
    23.234 6.5675e+11
    23.247 6.5865e+11
    23.259 6.6056e+11
    23.271 6.6248e+11
    23.284 6.6439e+11
    23.296 6.6631e+11
    23.308 6.6824e+11
    23.321 6.7016e+11
    23.333 6.7209e+11
    23.346 6.7402e+11
    23.358 6.7596e+11
     23.37  6.779e+11
    23.383 6.7985e+11
    23.395  6.818e+11
    23.408 6.8375e+11
     23.42 6.8571e+11
    23.432 6.8767e+11
    23.445 6.8963e+11
    23.457  6.916e+11
     23.47 6.9357e+11
    23.482 6.9555e+11
    23.494 6.9753e+11
    23.507 6.9951e+11
    23.519  7.015e+11
    23.532 7.0349e+11
    23.544 7.0548e+11
    23.556 7.0748e+11
    23.569 7.0948e+11
    23.581 7.1148e+11
    23.594 7.1349e+11
    23.606 7.1551e+11
    23.618 7.1752e+11
    23.631 7.1954e+11
    23.643 7.2157e+11
    23.656 7.2359e+11
    23.668 7.2563e+11
     23.68 7.2766e+11
    23.693  7.297e+11
    23.705 7.3174e+11
    23.718 7.3379e+11
     23.73 7.3584e+11
    23.742  7.379e+11
    23.755 7.3995e+11
    23.767 7.4202e+11
     23.78 7.4408e+11
    23.792 7.4615e+11
    23.804 7.4823e+11
    23.817  7.503e+11
    23.829 7.5238e+11
    23.842 7.5447e+11
    23.854 7.5656e+11
    23.866 7.5865e+11
    23.879 7.6075e+11
    23.891 7.6285e+11
    23.904 7.6495e+11
    23.916 7.6706e+11
    23.928 7.6917e+11
    23.941 7.7129e+11
    23.953  7.734e+11
    23.966 7.7553e+11
    23.978 7.7766e+11
     23.99 7.7979e+11
    24.003 7.8192e+11
    24.015 7.8406e+11
    24.028  7.862e+11
     24.04 7.8835e+11
    24.052  7.905e+11
    24.065 7.9266e+11
    24.077 7.9481e+11
     24.09 7.9697e+11
    24.102 7.9914e+11
    24.114 8.0131e+11
    24.127 8.0349e+11
    24.139 8.0566e+11
    24.152 8.0785e+11
    24.164 8.1003e+11
    24.176 8.1222e+11
    24.189 8.1441e+11
    24.201 8.1661e+11
    24.214 8.1881e+11
    24.226 8.2101e+11
    24.238 8.2322e+11
    24.251 8.2543e+11
    24.263 8.2765e+11
    24.276 8.2987e+11
    24.288  8.321e+11
      24.3 8.3432e+11
    24.313 8.3656e+11
    24.325 8.3879e+11
    24.338 8.4103e+11
     24.35 8.4327e+11
    24.362 8.4552e+11
    24.375 8.4778e+11
    24.387 8.5003e+11
      24.4 8.5229e+11
    24.412 8.5455e+11
    24.424 8.5682e+11
    24.437 8.5909e+11
    24.449 8.6137e+11
    24.462 8.6365e+11
    24.474 8.6593e+11
    24.486 8.6822e+11
    24.499 8.7051e+11
    24.511  8.728e+11
    24.524  8.751e+11
    24.536  8.774e+11
    24.548 8.7971e+11
    24.561 8.8202e+11
    24.573 8.8434e+11
    24.585 8.8666e+11
    24.598 8.8898e+11
     24.61  8.913e+11
    24.623 8.9364e+11
    24.635 8.9597e+11
    24.647 8.9831e+11
     24.66 9.0065e+11
    24.672   9.03e+11
    24.685 9.0535e+11
    24.697  9.077e+11
    24.709 9.1006e+11
    24.722 9.1243e+11
    24.734 9.1479e+11
    24.747 9.1716e+11
    24.759 9.1954e+11
    24.771 9.2191e+11
    24.784  9.243e+11
    24.796 9.2668e+11
    24.809 9.2908e+11
    24.821 9.3147e+11
    24.833 9.3387e+11
    24.846 9.3627e+11
    24.858 9.3868e+11
    24.871 9.4109e+11
    24.883  9.435e+11
    24.895 9.4592e+11
    24.908 9.4834e+11
     24.92 9.5077e+11
    24.933  9.532e+11
    24.945 9.5564e+11
    24.957 9.5808e+11
     24.97 9.6052e+11
    24.982 9.6297e+11
    24.995 9.6542e+11
    25.007 9.6787e+11
    25.019 9.7033e+11
    25.032 9.7279e+11
    25.044 9.7526e+11
    25.057 9.7773e+11
    25.069 9.8021e+11
    25.081 9.8269e+11
    25.094 9.8517e+11
    25.106 9.8766e+11
    25.119 9.9015e+11
    25.131 9.9265e+11
    25.143 9.9514e+11
    25.156 9.9764e+11
    25.168 1.0002e+12
    25.181 1.0027e+12
    25.193 1.0052e+12
    25.205 1.0077e+12
    25.218 1.0102e+12
     25.23 1.0128e+12
    25.243 1.0153e+12
    25.255 1.0178e+12
    25.267 1.0204e+12
     25.28 1.0229e+12
    25.292 1.0255e+12
    25.305  1.028e+12
    25.317 1.0306e+12
    25.329 1.0331e+12
    25.342 1.0357e+12
    25.354 1.0383e+12
    25.367 1.0408e+12
    25.379 1.0434e+12
    25.391  1.046e+12
    25.404 1.0486e+12
    25.416 1.0512e+12
    25.429 1.0538e+12
    25.441 1.0564e+12
    25.453  1.059e+12
    25.466 1.0616e+12
    25.478 1.0642e+12
    25.491 1.0668e+12
    25.503 1.0694e+12
    25.515  1.072e+12
    25.528 1.0747e+12
     25.54 1.0773e+12
    25.553 1.0799e+12
    25.565 1.0826e+12
    25.577 1.0852e+12
     25.59 1.0879e+12
    25.602 1.0905e+12
    25.615 1.0932e+12
    25.627 1.0958e+12
    25.639 1.0985e+12
    25.652 1.1012e+12
    25.664 1.1038e+12
    25.677 1.1065e+12
    25.689 1.1092e+12
    25.701 1.1119e+12
    25.714 1.1146e+12
    25.726 1.1172e+12
    25.739 1.1199e+12
    25.751 1.1226e+12
    25.763 1.1253e+12
    25.776 1.1281e+12
    25.788 1.1308e+12
    25.801 1.1335e+12
    25.813 1.1362e+12
    25.825 1.1389e+12
    25.838 1.1417e+12
     25.85 1.1444e+12
    25.863 1.1471e+12
    25.875 1.1499e+12
    25.887 1.1526e+12
      25.9 1.1554e+12
    25.912 1.1581e+12
    25.924 1.1609e+12
    25.937 1.1637e+12
    25.949 1.1664e+12
    25.962 1.1692e+12
    25.974  1.172e+12
    25.986 1.1748e+12
    25.999 1.1775e+12
    26.011 1.1803e+12
    26.024 1.1831e+12
    26.036 1.1859e+12
    26.048 1.1887e+12
    26.061 1.1915e+12
    26.073 1.1943e+12
    26.086 1.1972e+12
    26.098    1.2e+12
     26.11 1.2028e+12
    26.123 1.2056e+12
    26.135 1.2084e+12
    26.148 1.2113e+12
     26.16 1.2141e+12
    26.172  1.217e+12
    26.185 1.2198e+12
    26.197 1.2227e+12
     26.21 1.2255e+12
    26.222 1.2284e+12
    26.234 1.2313e+12
    26.247 1.2341e+12
    26.259  1.237e+12
    26.272 1.2399e+12
    26.284 1.2428e+12
    26.296 1.2456e+12
    26.309 1.2485e+12
    26.321 1.2514e+12
    26.334 1.2543e+12
    26.346 1.2572e+12
    26.358 1.2601e+12
    26.371 1.2631e+12
    26.383  1.266e+12
    26.396 1.2689e+12
    26.408 1.2718e+12
     26.42 1.2747e+12
    26.433 1.2777e+12
    26.445 1.2806e+12
    26.458 1.2835e+12
     26.47 1.2865e+12
    26.482 1.2894e+12
    26.495 1.2924e+12
    26.507 1.2954e+12
     26.52 1.2983e+12
    26.532 1.3013e+12
    26.544 1.3043e+12
    26.557 1.3072e+12
    26.569 1.3102e+12
    26.582 1.3132e+12
    26.594 1.3162e+12
    26.606 1.3192e+12
    26.619 1.3222e+12
    26.631 1.3252e+12
    26.644 1.3282e+12
    26.656 1.3312e+12
    26.668 1.3342e+12
    26.681 1.3372e+12
    26.693 1.3402e+12
    26.706 1.3433e+12
    26.718 1.3463e+12
     26.73 1.3493e+12
    26.743 1.3524e+12
    26.755 1.3554e+12
    26.768 1.3585e+12
     26.78 1.3615e+12
    26.792 1.3646e+12
    26.805 1.3676e+12
    26.817 1.3707e+12
     26.83 1.3738e+12
    26.842 1.3768e+12
    26.854 1.3799e+12
    26.867  1.383e+12
    26.879 1.3861e+12
    26.892 1.3892e+12
    26.904 1.3923e+12
    26.916 1.3954e+12
    26.929 1.3985e+12
    26.941 1.4016e+12
    26.954 1.4047e+12
    26.966 1.4078e+12
    26.978 1.4109e+12
    26.991 1.4141e+12
    27.003 1.4172e+12
    27.016 1.4203e+12
    27.028 1.4235e+12
     27.04 1.4266e+12
    27.053 1.4298e+12
    27.065 1.4329e+12
    27.078 1.4361e+12
     27.09 1.4392e+12
    27.102 1.4424e+12
    27.115 1.4456e+12
    27.127 1.4487e+12
     27.14 1.4519e+12
    27.152 1.4551e+12
    27.164 1.4583e+12
    27.177 1.4615e+12
    27.189 1.4647e+12
    27.202 1.4679e+12
    27.214 1.4711e+12
    27.226 1.4743e+12
    27.239 1.4775e+12
    27.251 1.4807e+12
    27.263 1.4839e+12
    27.276 1.4872e+12
    27.288 1.4904e+12
    27.301 1.4936e+12
    27.313 1.4969e+12
    27.325 1.5001e+12
    27.338 1.5033e+12
     27.35 1.5066e+12
    27.363 1.5099e+12
    27.375 1.5131e+12
    27.387 1.5164e+12
      27.4 1.5196e+12
    27.412 1.5229e+12
    27.425 1.5262e+12
    27.437 1.5295e+12
    27.449 1.5328e+12
    27.462 1.5361e+12
    27.474 1.5394e+12
    27.487 1.5426e+12
    27.499  1.546e+12
    27.511 1.5493e+12
    27.524 1.5526e+12
    27.536 1.5559e+12
    27.549 1.5592e+12
    27.561 1.5625e+12
    27.573 1.5659e+12
    27.586 1.5692e+12
    27.598 1.5725e+12
    27.611 1.5759e+12
    27.623 1.5792e+12
    27.635 1.5826e+12
    27.648 1.5859e+12
     27.66 1.5893e+12
    27.673 1.5927e+12
    27.685  1.596e+12
    27.697 1.5994e+12
     27.71 1.6028e+12
    27.722 1.6062e+12
    27.735 1.6096e+12
    27.747  1.613e+12
    27.759 1.6163e+12
    27.772 1.6197e+12
    27.784 1.6231e+12
    27.797 1.6266e+12
    27.809   1.63e+12
    27.821 1.6334e+12
    27.834 1.6368e+12
    27.846 1.6402e+12
    27.859 1.6437e+12
    27.871 1.6471e+12
    27.883 1.6505e+12
    27.896  1.654e+12
    27.908 1.6574e+12
    27.921 1.6609e+12
    27.933 1.6644e+12
    27.945 1.6678e+12
    27.958 1.6713e+12
     27.97 1.6748e+12
    27.983 1.6782e+12
    27.995 1.6817e+12
    28.007 1.6852e+12
     28.02 1.6887e+12
    28.032 1.6922e+12
    28.045 1.6957e+12
    28.057 1.6992e+12
    28.069 1.7027e+12
    28.082 1.7062e+12
    28.094 1.7097e+12
    28.107 1.7132e+12
    28.119 1.7167e+12
    28.131 1.7203e+12
    28.144 1.7238e+12
    28.156 1.7273e+12
    28.169 1.7309e+12
    28.181 1.7344e+12
    28.193  1.738e+12
    28.206 1.7415e+12
    28.218 1.7451e+12
    28.231 1.7487e+12
    28.243 1.7522e+12
    28.255 1.7558e+12
    28.268 1.7594e+12
     28.28  1.763e+12
    28.293 1.7665e+12
    28.305 1.7701e+12
    28.317 1.7737e+12
     28.33 1.7773e+12
    28.342 1.7809e+12
    28.355 1.7845e+12
    28.367 1.7882e+12
    28.379 1.7918e+12
    28.392 1.7954e+12
    28.404  1.799e+12
    28.417 1.8026e+12
    28.429 1.8063e+12
    28.441 1.8099e+12
    28.454 1.8136e+12
    28.466 1.8172e+12
    28.479 1.8209e+12
    28.491 1.8245e+12
    28.503 1.8282e+12
    28.516 1.8318e+12
    28.528 1.8355e+12
    28.541 1.8392e+12
    28.553 1.8429e+12
    28.565 1.8465e+12
    28.578 1.8502e+12
     28.59 1.8539e+12
    28.602 1.8576e+12
    28.615 1.8613e+12
    28.627  1.865e+12
     28.64 1.8687e+12
    28.652 1.8725e+12
    28.664 1.8762e+12
    28.677 1.8799e+12
    28.689 1.8836e+12
    28.702 1.8874e+12
    28.714 1.8911e+12
    28.726 1.8948e+12
    28.739 1.8986e+12
    28.751 1.9023e+12
    28.764 1.9061e+12
    28.776 1.9099e+12
    28.788 1.9136e+12
    28.801 1.9174e+12
    28.813 1.9212e+12
    28.826 1.9249e+12
    28.838 1.9287e+12
     28.85 1.9325e+12
    28.863 1.9363e+12
    28.875 1.9401e+12
    28.888 1.9439e+12
      28.9 1.9477e+12
    28.912 1.9515e+12
    28.925 1.9553e+12
    28.937 1.9591e+12
     28.95  1.963e+12
    28.962 1.9668e+12
    28.974 1.9706e+12
    28.987 1.9744e+12
    28.999 1.9783e+12
    29.012 1.9821e+12
    29.024  1.986e+12
    29.036 1.9898e+12
    29.049 1.9937e+12
    29.061 1.9976e+12
    29.074 2.0014e+12
    29.086 2.0053e+12
    29.098 2.0092e+12
    29.111  2.013e+12
    29.123 2.0169e+12
    29.136 2.0208e+12
    29.148 2.0247e+12
     29.16 2.0286e+12
    29.173 2.0325e+12
    29.185 2.0364e+12
    29.198 2.0403e+12
     29.21 2.0442e+12
    29.222 2.0482e+12
    29.235 2.0521e+12
    29.247  2.056e+12
     29.26   2.06e+12
    29.272 2.0639e+12
    29.284 2.0678e+12
    29.297 2.0718e+12
    29.309 2.0757e+12
    29.322 2.0797e+12
    29.334 2.0837e+12
    29.346 2.0876e+12
    29.359 2.0916e+12
    29.371 2.0956e+12
    29.384 2.0996e+12
    29.396 2.1035e+12
    29.408 2.1075e+12
    29.421 2.1115e+12
    29.433 2.1155e+12
    29.446 2.1195e+12
    29.458 2.1235e+12
     29.47 2.1275e+12
    29.483 2.1315e+12
    29.495 2.1356e+12
    29.508 2.1396e+12
     29.52 2.1436e+12
    29.532 2.1477e+12
    29.545 2.1517e+12
    29.557 2.1557e+12
     29.57 2.1598e+12
    29.582 2.1638e+12
    29.594 2.1679e+12
    29.607 2.1719e+12
    29.619  2.176e+12
    29.632 2.1801e+12
    29.644 2.1841e+12
    29.656 2.1882e+12
    29.669 2.1923e+12
    29.681 2.1964e+12
    29.694 2.2005e+12
    29.706 2.2046e+12
    29.718 2.2087e+12
    29.731 2.2128e+12
    29.743 2.2169e+12
    29.756  2.221e+12
    29.768 2.2251e+12
     29.78 2.2293e+12
    29.793 2.2334e+12
    29.805 2.2375e+12
    29.818 2.2417e+12
     29.83 2.2458e+12
    29.842 2.2499e+12
    29.855 2.2541e+12
    29.867 2.2582e+12
     29.88 2.2624e+12
    29.892 2.2666e+12
    29.904 2.2707e+12
    29.917 2.2749e+12
    29.929 2.2791e+12
    29.941 2.2833e+12
    29.954 2.2875e+12
    29.966 2.2916e+12
    29.979 2.2958e+12
    29.991    2.3e+12
    30.003 2.3042e+12
