RRKM rate, sf=0.970, S*=9.91, E0=2.32 and Delta=2.32
   En (eV)    k (s-1)
         0          0
  0.012398          0
  0.024796          0
  0.037194          0
  0.049593          0
  0.061991          0
  0.074389          0
  0.086787          0
  0.099185          0
   0.11158          0
   0.12398          0
   0.13638          0
   0.14878          0
   0.16118          0
   0.17357          0
   0.18597          0
   0.19837          0
   0.21077          0
   0.22317          0
   0.23556          0
   0.24796          0
   0.26036          0
   0.27276          0
   0.28516          0
   0.29756          0
   0.30995          0
   0.32235          0
   0.33475          0
   0.34715          0
   0.35955          0
   0.37194          0
   0.38434          0
   0.39674          0
   0.40914          0
   0.42154          0
   0.43393          0
   0.44633          0
   0.45873          0
   0.47113          0
   0.48353          0
   0.49593          0
   0.50832          0
   0.52072          0
   0.53312          0
   0.54552          0
   0.55792          0
   0.57031          0
   0.58271          0
   0.59511          0
   0.60751          0
   0.61991          0
    0.6323          0
    0.6447          0
    0.6571          0
    0.6695          0
    0.6819          0
    0.6943          0
   0.70669          0
   0.71909          0
   0.73149          0
   0.74389          0
   0.75629          0
   0.76868          0
   0.78108          0
   0.79348          0
   0.80588          0
   0.81828          0
   0.83067          0
   0.84307          0
   0.85547          0
   0.86787          0
   0.88027          0
   0.89267          0
   0.90506          0
   0.91746          0
   0.92986          0
   0.94226          0
   0.95466          0
   0.96705          0
   0.97945          0
   0.99185          0
    1.0042          0
    1.0166          0
     1.029          0
    1.0414          0
    1.0538          0
    1.0662          0
    1.0786          0
     1.091          0
    1.1034          0
    1.1158          0
    1.1282          0
    1.1406          0
     1.153          0
    1.1654          0
    1.1778          0
    1.1902          0
    1.2026          0
     1.215          0
    1.2274          0
    1.2398          0
    1.2522          0
    1.2646          0
     1.277          0
    1.2894          0
    1.3018          0
    1.3142          0
    1.3266          0
     1.339          0
    1.3514          0
    1.3638          0
    1.3762          0
    1.3886          0
     1.401          0
    1.4134          0
    1.4258          0
    1.4382          0
    1.4506          0
     1.463          0
    1.4754          0
    1.4878          0
    1.5002          0
    1.5126          0
     1.525          0
    1.5374          0
    1.5498          0
    1.5622          0
    1.5746          0
     1.587          0
    1.5994          0
    1.6118          0
    1.6242          0
    1.6366          0
     1.649          0
    1.6613          0
    1.6737          0
    1.6861          0
    1.6985          0
    1.7109          0
    1.7233          0
    1.7357          0
    1.7481          0
    1.7605          0
    1.7729          0
    1.7853          0
    1.7977          0
    1.8101          0
    1.8225          0
    1.8349          0
    1.8473          0
    1.8597          0
    1.8721          0
    1.8845          0
    1.8969          0
    1.9093          0
    1.9217          0
    1.9341          0
    1.9465          0
    1.9589          0
    1.9713          0
    1.9837          0
    1.9961          0
    2.0085          0
    2.0209          0
    2.0333          0
    2.0457          0
    2.0581          0
    2.0705          0
    2.0829          0
    2.0953          0
    2.1077          0
    2.1201          0
    2.1325          0
    2.1449          0
    2.1573          0
    2.1697          0
    2.1821          0
    2.1945          0
    2.2069          0
    2.2193          0
    2.2317          0
    2.2441          0
    2.2565          0
    2.2689          0
    2.2813          0
    2.2937          0
    2.3061          0
    2.3185          0
    2.3308 1.1839e-09
    2.3432   3.06e-09
    2.3556 8.7915e-09
     2.368 1.6678e-08
    2.3804 3.3353e-08
    2.3928 5.9262e-08
    2.4052 1.0428e-07
    2.4176  1.751e-07
      2.43 2.8298e-07
    2.4424 4.4903e-07
    2.4548 6.9075e-07
    2.4672 1.0501e-06
    2.4796 1.5596e-06
     2.492 2.2859e-06
    2.5044 3.2972e-06
    2.5168  4.697e-06
    2.5292 6.6131e-06
    2.5416 9.2053e-06
     2.554 1.2687e-05
    2.5664 1.7316e-05
    2.5788 2.3431e-05
    2.5912 3.1444e-05
    2.6036 4.1874e-05
     2.616 5.5359e-05
    2.6284 7.2687e-05
    2.6408 9.4824e-05
    2.6532 0.00012295
    2.6656 0.00015849
     2.678 0.00020319
    2.6904 0.00025911
    2.7028 0.00032878
    2.7152 0.00041519
    2.7276 0.00052191
      2.74 0.00065319
    2.7524 0.00081405
    2.7648  0.0010104
    2.7772  0.0012494
    2.7896   0.001539
     2.802   0.001889
    2.8144  0.0023106
    2.8268  0.0028168
    2.8392  0.0034228
    2.8516  0.0041463
     2.864  0.0050076
    2.8764  0.0060301
    2.8888  0.0072409
    2.9012  0.0086712
    2.9136   0.010356
     2.926   0.012337
    2.9384    0.01466
    2.9508   0.017378
    2.9632   0.020552
    2.9756   0.024249
     2.988   0.028548
    3.0003   0.033536
    3.0127   0.039313
    3.0251   0.045989
    3.0375   0.053692
    3.0499   0.062562
    3.0623   0.072758
    3.0747   0.084459
    3.0871   0.097864
    3.0995     0.1132
    3.1119     0.1307
    3.1243    0.15066
    3.1367    0.17338
    3.1491    0.19921
    3.1615    0.22852
    3.1739    0.26173
    3.1863    0.29932
    3.1987    0.34181
    3.2111    0.38976
    3.2235     0.4438
    3.2359    0.50464
    3.2483    0.57304
    3.2607    0.64984
    3.2731    0.73598
    3.2855    0.83245
    3.2979     0.9404
    3.3103      1.061
    3.3227     1.1957
    3.3351     1.3458
    3.3475     1.5131
    3.3599     1.6992
    3.3723      1.906
    3.3847     2.1357
    3.3971     2.3904
    3.4095     2.6727
    3.4219     2.9851
    3.4343     3.3307
    3.4467     3.7126
    3.4591     4.1341
    3.4715      4.599
    3.4839     5.1113
    3.4963     5.6753
    3.5087     6.2958
    3.5211     6.9776
    3.5335     7.7263
    3.5459     8.5479
    3.5583     9.4486
    3.5707     10.435
    3.5831     11.515
    3.5955     12.696
    3.6079     13.987
    3.6203     15.397
    3.6327     16.936
    3.6451     18.613
    3.6574     20.442
    3.6698     22.432
    3.6822     24.599
    3.6946     26.955
     3.707     29.514
    3.7194     32.294
    3.7318     35.311
    3.7442     38.583
    3.7566     42.129
     3.769      45.97
    3.7814     50.128
    3.7938     54.626
    3.8062     59.489
    3.8186     64.744
     3.831     70.418
    3.8434     76.543
    3.8558     83.148
    3.8682     90.269
    3.8806     97.941
     3.893      106.2
    3.9054     115.09
    3.9178     124.66
    3.9302     134.94
    3.9426     145.99
     3.955     157.86
    3.9674     170.59
    3.9798     184.26
    3.9922     198.91
    4.0046     214.62
     4.017     231.44
    4.0294     249.46
    4.0418     268.74
    4.0542     289.37
    4.0666     311.42
     4.079        335
    4.0914     360.18
    4.1038     387.07
    4.1162     415.77
    4.1286     446.39
     4.141     479.05
    4.1534     513.86
    4.1658     550.95
    4.1782     590.45
    4.1906     632.51
     4.203     677.26
    4.2154     724.87
    4.2278      775.5
    4.2402      829.3
    4.2526     886.48
     4.265      947.2
    4.2774     1011.7
    4.2898     1080.1
    4.3022     1152.7
    4.3146     1229.7
    4.3269     1311.3
    4.3393     1397.7
    4.3517     1489.4
    4.3641     1586.4
    4.3765     1689.1
    4.3889     1797.7
    4.4013     1912.7
    4.4137     2034.3
    4.4261     2162.8
    4.4385     2298.6
    4.4509     2442.1
    4.4633     2593.7
    4.4757     2753.7
    4.4881     2922.5
    4.5005     3100.7
    4.5129     3288.6
    4.5253     3486.8
    4.5377     3695.7
    4.5501     3915.8
    4.5625     4147.7
    4.5749     4391.9
    4.5873       4649
    4.5997     4919.6
    4.6121     5204.4
    4.6245       5504
    4.6369       5819
    4.6493     6150.2
    4.6617     6498.3
    4.6741       6864
    4.6865     7248.3
    4.6989     7651.8
    4.7113     8075.4
    4.7237       8520
    4.7361     8986.6
    4.7485     9476.1
    4.7609     9989.5
    4.7733      10528
    4.7857      11092
    4.7981      11683
    4.8105      12303
    4.8229      12952
    4.8353      13631
    4.8477      14343
    4.8601      15088
    4.8725      15867
    4.8849      16682
    4.8973      17535
    4.9097      18427
    4.9221      19359
    4.9345      20334
    4.9469      21352
    4.9593      22416
    4.9717      23528
     4.984      24688
    4.9964      25900
    5.0088      27165
    5.0212      28485
    5.0336      29862
     5.046      31299
    5.0584      32798
    5.0708      34360
    5.0832      35989
    5.0956      37687
     5.108      39456
    5.1204      41300
    5.1328      43220
    5.1452      45220
    5.1576      47302
      5.17      49470
    5.1824      51727
    5.1948      54075
    5.2072      56518
    5.2196      59059
     5.232      61703
    5.2444      64452
    5.2568      67309
    5.2692      70280
    5.2816      73367
     5.294      76575
    5.3064      79908
    5.3188      83370
    5.3312      86965
    5.3436      90698
     5.356      94574
    5.3684      98598
    5.3808 1.0277e+05
    5.3932 1.0711e+05
    5.4056  1.116e+05
     5.418 1.1626e+05
    5.4304  1.211e+05
    5.4428 1.2611e+05
    5.4552 1.3131e+05
    5.4676  1.367e+05
      5.48 1.4229e+05
    5.4924 1.4808e+05
    5.5048 1.5407e+05
    5.5172 1.6029e+05
    5.5296 1.6672e+05
     5.542 1.7339e+05
    5.5544 1.8029e+05
    5.5668 1.8744e+05
    5.5792 1.9483e+05
    5.5916 2.0249e+05
     5.604 2.1041e+05
    5.6164 2.1861e+05
    5.6288 2.2709e+05
    5.6412 2.3586e+05
    5.6535 2.4493e+05
    5.6659 2.5431e+05
    5.6783 2.6401e+05
    5.6907 2.7404e+05
    5.7031  2.844e+05
    5.7155 2.9512e+05
    5.7279 3.0618e+05
    5.7403 3.1762e+05
    5.7527 3.2944e+05
    5.7651 3.4164e+05
    5.7775 3.5424e+05
    5.7899 3.6726e+05
    5.8023  3.807e+05
    5.8147 3.9457e+05
    5.8271 4.0889e+05
    5.8395 4.2367e+05
    5.8519 4.3892e+05
    5.8643 4.5466e+05
    5.8767  4.709e+05
    5.8891 4.8765e+05
    5.9015 5.0492e+05
    5.9139 5.2274e+05
    5.9263 5.4111e+05
    5.9387 5.6005e+05
    5.9511 5.7958e+05
    5.9635  5.997e+05
    5.9759 6.2045e+05
    5.9883 6.4183e+05
    6.0007 6.6385e+05
    6.0131 6.8655e+05
    6.0255 7.0993e+05
    6.0379 7.3401e+05
    6.0503 7.5881e+05
    6.0627 7.8435e+05
    6.0751 8.1066e+05
    6.0875 8.3773e+05
    6.0999 8.6561e+05
    6.1123  8.943e+05
    6.1247 9.2383e+05
    6.1371 9.5422e+05
    6.1495 9.8549e+05
    6.1619 1.0177e+06
    6.1743 1.0508e+06
    6.1867 1.0848e+06
    6.1991 1.1198e+06
    6.2115 1.1558e+06
    6.2239 1.1929e+06
    6.2363 1.2309e+06
    6.2487 1.2701e+06
    6.2611 1.3103e+06
    6.2735 1.3517e+06
    6.2859 1.3942e+06
    6.2983 1.4378e+06
    6.3107 1.4827e+06
     6.323 1.5288e+06
    6.3354 1.5762e+06
    6.3478 1.6249e+06
    6.3602 1.6749e+06
    6.3726 1.7262e+06
     6.385 1.7789e+06
    6.3974  1.833e+06
    6.4098 1.8886e+06
    6.4222 1.9457e+06
    6.4346 2.0042e+06
     6.447 2.0644e+06
    6.4594 2.1261e+06
    6.4718 2.1894e+06
    6.4842 2.2543e+06
    6.4966  2.321e+06
     6.509 2.3894e+06
    6.5214 2.4595e+06
    6.5338 2.5315e+06
    6.5462 2.6053e+06
    6.5586  2.681e+06
     6.571 2.7586e+06
    6.5834 2.8382e+06
    6.5958 2.9198e+06
    6.6082 3.0035e+06
    6.6206 3.0892e+06
     6.633 3.1771e+06
    6.6454 3.2672e+06
    6.6578 3.3595e+06
    6.6702 3.4541e+06
    6.6826  3.551e+06
     6.695 3.6504e+06
    6.7074 3.7521e+06
    6.7198 3.8563e+06
    6.7322 3.9631e+06
    6.7446 4.0724e+06
     6.757 4.1844e+06
    6.7694  4.299e+06
    6.7818 4.4164e+06
    6.7942 4.5366e+06
    6.8066 4.6597e+06
     6.819 4.7857e+06
    6.8314 4.9147e+06
    6.8438 5.0466e+06
    6.8562 5.1817e+06
    6.8686   5.32e+06
     6.881 5.4614e+06
    6.8934 5.6062e+06
    6.9058 5.7543e+06
    6.9182 5.9058e+06
    6.9306 6.0607e+06
     6.943 6.2192e+06
    6.9554 6.3814e+06
    6.9678 6.5472e+06
    6.9801 6.7168e+06
    6.9925 6.8902e+06
    7.0049 7.0675e+06
    7.0173 7.2488e+06
    7.0297 7.4341e+06
    7.0421 7.6236e+06
    7.0545 7.8173e+06
    7.0669 8.0152e+06
    7.0793 8.2175e+06
    7.0917 8.4243e+06
    7.1041 8.6356e+06
    7.1165 8.8515e+06
    7.1289  9.072e+06
    7.1413 9.2974e+06
    7.1537 9.5277e+06
    7.1661 9.7629e+06
    7.1785 1.0003e+07
    7.1909 1.0248e+07
    7.2033 1.0499e+07
    7.2157 1.0755e+07
    7.2281 1.1016e+07
    7.2405 1.1283e+07
    7.2529 1.1556e+07
    7.2653 1.1834e+07
    7.2777 1.2118e+07
    7.2901 1.2408e+07
    7.3025 1.2704e+07
    7.3149 1.3006e+07
    7.3273 1.3314e+07
    7.3397 1.3629e+07
    7.3521  1.395e+07
    7.3645 1.4278e+07
    7.3769 1.4612e+07
    7.3893 1.4953e+07
    7.4017 1.5301e+07
    7.4141 1.5656e+07
    7.4265 1.6018e+07
    7.4389 1.6388e+07
    7.4513 1.6765e+07
    7.4637 1.7149e+07
    7.4761 1.7541e+07
    7.4885 1.7941e+07
    7.5009 1.8348e+07
    7.5133 1.8764e+07
    7.5257 1.9188e+07
    7.5381  1.962e+07
    7.5505  2.006e+07
    7.5629 2.0509e+07
    7.5753 2.0967e+07
    7.5877 2.1434e+07
    7.6001 2.1909e+07
    7.6125 2.2394e+07
    7.6249 2.2888e+07
    7.6373 2.3391e+07
    7.6496 2.3904e+07
     7.662 2.4426e+07
    7.6744 2.4959e+07
    7.6868 2.5501e+07
    7.6992 2.6054e+07
    7.7116 2.6617e+07
     7.724 2.7191e+07
    7.7364 2.7775e+07
    7.7488  2.837e+07
    7.7612 2.8976e+07
    7.7736 2.9593e+07
     7.786 3.0222e+07
    7.7984 3.0862e+07
    7.8108 3.1513e+07
    7.8232 3.2177e+07
    7.8356 3.2853e+07
     7.848  3.354e+07
    7.8604 3.4241e+07
    7.8728 3.4954e+07
    7.8852 3.5679e+07
    7.8976 3.6418e+07
      7.91  3.717e+07
    7.9224 3.7935e+07
    7.9348 3.8714e+07
    7.9472 3.9506e+07
    7.9596 4.0312e+07
     7.972 4.1133e+07
    7.9844 4.1968e+07
    7.9968 4.2817e+07
    8.0092 4.3682e+07
    8.0216 4.4561e+07
     8.034 4.5456e+07
    8.0464 4.6366e+07
    8.0588 4.7291e+07
    8.0712 4.8233e+07
    8.0836 4.9191e+07
     8.096 5.0164e+07
    8.1084 5.1155e+07
    8.1208 5.2162e+07
    8.1332 5.3186e+07
    8.1456 5.4228e+07
     8.158 5.5287e+07
    8.1704 5.6364e+07
    8.1828 5.7459e+07
    8.1952 5.8572e+07
    8.2076 5.9704e+07
      8.22 6.0854e+07
    8.2324 6.2024e+07
    8.2448 6.3212e+07
    8.2572  6.442e+07
    8.2696 6.5648e+07
     8.282 6.6896e+07
    8.2944 6.8164e+07
    8.3067 6.9453e+07
    8.3191 7.0763e+07
    8.3315 7.2094e+07
    8.3439 7.3446e+07
    8.3563  7.482e+07
    8.3687 7.6216e+07
    8.3811 7.7635e+07
    8.3935 7.9076e+07
    8.4059  8.054e+07
    8.4183 8.2027e+07
    8.4307 8.3537e+07
    8.4431 8.5072e+07
    8.4555  8.663e+07
    8.4679 8.8213e+07
    8.4803  8.982e+07
    8.4927 9.1453e+07
    8.5051 9.3111e+07
    8.5175 9.4794e+07
    8.5299 9.6504e+07
    8.5423  9.824e+07
    8.5547      1e+08
    8.5671 1.0179e+08
    8.5795 1.0361e+08
    8.5919 1.0545e+08
    8.6043 1.0733e+08
    8.6167 1.0923e+08
    8.6291 1.1116e+08
    8.6415 1.1311e+08
    8.6539  1.151e+08
    8.6663 1.1712e+08
    8.6787 1.1917e+08
    8.6911 1.2125e+08
    8.7035 1.2336e+08
    8.7159  1.255e+08
    8.7283 1.2767e+08
    8.7407 1.2987e+08
    8.7531 1.3211e+08
    8.7655 1.3438e+08
    8.7779 1.3668e+08
    8.7903 1.3902e+08
    8.8027 1.4139e+08
    8.8151  1.438e+08
    8.8275 1.4623e+08
    8.8399 1.4871e+08
    8.8523 1.5122e+08
    8.8647 1.5377e+08
    8.8771 1.5635e+08
    8.8895 1.5897e+08
    8.9019 1.6163e+08
    8.9143 1.6432e+08
    8.9267 1.6705e+08
    8.9391 1.6983e+08
    8.9515 1.7264e+08
    8.9639 1.7549e+08
    8.9762 1.7838e+08
    8.9886 1.8131e+08
     9.001 1.8428e+08
    9.0134 1.8729e+08
    9.0258 1.9035e+08
    9.0382 1.9344e+08
    9.0506 1.9658e+08
     9.063 1.9976e+08
    9.0754 2.0299e+08
    9.0878 2.0626e+08
    9.1002 2.0958e+08
    9.1126 2.1294e+08
     9.125 2.1634e+08
    9.1374  2.198e+08
    9.1498 2.2329e+08
    9.1622 2.2684e+08
    9.1746 2.3043e+08
     9.187 2.3408e+08
    9.1994 2.3777e+08
    9.2118 2.4151e+08
    9.2242  2.453e+08
    9.2366 2.4914e+08
     9.249 2.5303e+08
    9.2614 2.5697e+08
    9.2738 2.6096e+08
    9.2862 2.6501e+08
    9.2986 2.6911e+08
     9.311 2.7326e+08
    9.3234 2.7747e+08
    9.3358 2.8173e+08
    9.3482 2.8605e+08
    9.3606 2.9042e+08
     9.373 2.9485e+08
    9.3854 2.9934e+08
    9.3978 3.0388e+08
    9.4102 3.0849e+08
    9.4226 3.1315e+08
     9.435 3.1787e+08
    9.4474 3.2265e+08
    9.4598 3.2749e+08
    9.4722  3.324e+08
    9.4846 3.3736e+08
     9.497 3.4239e+08
    9.5094 3.4748e+08
    9.5218 3.5263e+08
    9.5342 3.5785e+08
    9.5466 3.6314e+08
     9.559 3.6849e+08
    9.5714  3.739e+08
    9.5838 3.7938e+08
    9.5962 3.8493e+08
    9.6086 3.9055e+08
     9.621 3.9624e+08
    9.6333   4.02e+08
    9.6457 4.0783e+08
    9.6581 4.1373e+08
    9.6705  4.197e+08
    9.6829 4.2574e+08
    9.6953 4.3186e+08
    9.7077 4.3805e+08
    9.7201 4.4431e+08
    9.7325 4.5066e+08
    9.7449 4.5707e+08
    9.7573 4.6357e+08
    9.7697 4.7014e+08
    9.7821 4.7678e+08
    9.7945 4.8351e+08
    9.8069 4.9032e+08
    9.8193 4.9721e+08
    9.8317 5.0418e+08
    9.8441 5.1123e+08
    9.8565 5.1836e+08
    9.8689 5.2558e+08
    9.8813 5.3288e+08
    9.8937 5.4027e+08
    9.9061 5.4774e+08
    9.9185  5.553e+08
    9.9309 5.6295e+08
    9.9433 5.7068e+08
    9.9557 5.7851e+08
    9.9681 5.8642e+08
    9.9805 5.9443e+08
    9.9929 6.0252e+08
    10.005 6.1071e+08
    10.018 6.1899e+08
     10.03 6.2737e+08
    10.042 6.3584e+08
    10.055  6.444e+08
    10.067 6.5307e+08
     10.08 6.6183e+08
    10.092 6.7069e+08
    10.104 6.7965e+08
    10.117  6.887e+08
    10.129 6.9786e+08
    10.142 7.0712e+08
    10.154 7.1648e+08
    10.166 7.2595e+08
    10.179 7.3552e+08
    10.191  7.452e+08
    10.204 7.5498e+08
    10.216 7.6487e+08
    10.228 7.7487e+08
    10.241 7.8497e+08
    10.253 7.9519e+08
    10.266 8.0552e+08
    10.278 8.1596e+08
     10.29 8.2651e+08
    10.303 8.3718e+08
    10.315 8.4796e+08
    10.328 8.5886e+08
     10.34 8.6987e+08
    10.352 8.8101e+08
    10.365 8.9226e+08
    10.377 9.0362e+08
     10.39 9.1512e+08
    10.402 9.2673e+08
    10.414 9.3846e+08
    10.427 9.5032e+08
    10.439 9.6231e+08
    10.452 9.7442e+08
    10.464 9.8665e+08
    10.476 9.9901e+08
    10.489 1.0115e+09
    10.501 1.0241e+09
    10.514 1.0369e+09
    10.526 1.0498e+09
    10.538 1.0628e+09
    10.551 1.0759e+09
    10.563 1.0892e+09
    10.576 1.1027e+09
    10.588 1.1162e+09
      10.6 1.1299e+09
    10.613 1.1438e+09
    10.625 1.1577e+09
    10.638 1.1719e+09
     10.65 1.1861e+09
    10.662 1.2005e+09
    10.675 1.2151e+09
    10.687 1.2298e+09
      10.7 1.2446e+09
    10.712 1.2596e+09
    10.724 1.2748e+09
    10.737 1.2901e+09
    10.749 1.3055e+09
    10.762 1.3211e+09
    10.774 1.3369e+09
    10.786 1.3528e+09
    10.799 1.3689e+09
    10.811 1.3851e+09
    10.824 1.4015e+09
    10.836 1.4181e+09
    10.848 1.4348e+09
    10.861 1.4516e+09
    10.873 1.4687e+09
    10.886 1.4859e+09
    10.898 1.5033e+09
     10.91 1.5208e+09
    10.923 1.5385e+09
    10.935 1.5564e+09
    10.948 1.5744e+09
     10.96 1.5926e+09
    10.972  1.611e+09
    10.985 1.6296e+09
    10.997 1.6484e+09
     11.01 1.6673e+09
    11.022 1.6864e+09
    11.034 1.7057e+09
    11.047 1.7252e+09
    11.059 1.7448e+09
    11.072 1.7647e+09
    11.084 1.7847e+09
    11.096 1.8049e+09
    11.109 1.8253e+09
    11.121 1.8459e+09
    11.134 1.8667e+09
    11.146 1.8876e+09
    11.158 1.9088e+09
    11.171 1.9302e+09
    11.183 1.9517e+09
    11.196 1.9735e+09
    11.208 1.9955e+09
     11.22 2.0176e+09
    11.233   2.04e+09
    11.245 2.0625e+09
    11.258 2.0853e+09
     11.27 2.1083e+09
    11.282 2.1315e+09
    11.295 2.1549e+09
    11.307 2.1785e+09
    11.319 2.2023e+09
    11.332 2.2263e+09
    11.344 2.2506e+09
    11.357 2.2751e+09
    11.369 2.2998e+09
    11.381 2.3247e+09
    11.394 2.3498e+09
    11.406 2.3751e+09
    11.419 2.4007e+09
    11.431 2.4265e+09
    11.443 2.4526e+09
    11.456 2.4788e+09
    11.468 2.5053e+09
    11.481  2.532e+09
    11.493  2.559e+09
    11.505 2.5862e+09
    11.518 2.6136e+09
     11.53 2.6413e+09
    11.543 2.6692e+09
    11.555 2.6973e+09
    11.567 2.7257e+09
     11.58 2.7544e+09
    11.592 2.7833e+09
    11.605 2.8124e+09
    11.617 2.8418e+09
    11.629 2.8714e+09
    11.642 2.9013e+09
    11.654 2.9314e+09
    11.667 2.9618e+09
    11.679 2.9925e+09
    11.691 3.0234e+09
    11.704 3.0546e+09
    11.716  3.086e+09
    11.729 3.1177e+09
    11.741 3.1497e+09
    11.753 3.1819e+09
    11.766 3.2144e+09
    11.778 3.2472e+09
    11.791 3.2803e+09
    11.803 3.3136e+09
    11.815 3.3472e+09
    11.828 3.3811e+09
     11.84 3.4152e+09
    11.853 3.4497e+09
    11.865 3.4844e+09
    11.877 3.5194e+09
     11.89 3.5547e+09
    11.902 3.5903e+09
    11.915 3.6262e+09
    11.927 3.6624e+09
    11.939 3.6988e+09
    11.952 3.7356e+09
    11.964 3.7727e+09
    11.977   3.81e+09
    11.989 3.8477e+09
    12.001 3.8856e+09
    12.014 3.9239e+09
    12.026 3.9625e+09
    12.039 4.0014e+09
    12.051 4.0406e+09
    12.063 4.0801e+09
    12.076 4.1199e+09
    12.088   4.16e+09
    12.101 4.2005e+09
    12.113 4.2412e+09
    12.125 4.2823e+09
    12.138 4.3238e+09
     12.15 4.3655e+09
    12.163 4.4076e+09
    12.175   4.45e+09
    12.187 4.4927e+09
      12.2 4.5358e+09
    12.212 4.5792e+09
    12.225 4.6229e+09
    12.237  4.667e+09
    12.249 4.7114e+09
    12.262 4.7562e+09
    12.274 4.8013e+09
    12.287 4.8468e+09
    12.299 4.8926e+09
    12.311 4.9387e+09
    12.324 4.9852e+09
    12.336 5.0321e+09
    12.349 5.0793e+09
    12.361 5.1269e+09
    12.373 5.1748e+09
    12.386 5.2231e+09
    12.398 5.2718e+09
    12.411 5.3209e+09
    12.423 5.3703e+09
    12.435   5.42e+09
    12.448 5.4702e+09
     12.46 5.5207e+09
    12.473 5.5716e+09
    12.485 5.6229e+09
    12.497 5.6746e+09
     12.51 5.7266e+09
    12.522 5.7791e+09
    12.535 5.8319e+09
    12.547 5.8851e+09
    12.559 5.9387e+09
    12.572 5.9927e+09
    12.584 6.0471e+09
    12.597 6.1019e+09
    12.609 6.1571e+09
    12.621 6.2127e+09
    12.634 6.2687e+09
    12.646 6.3252e+09
    12.658 6.3819e+09
    12.671 6.4392e+09
    12.683 6.4969e+09
    12.696 6.5549e+09
    12.708 6.6134e+09
     12.72 6.6723e+09
    12.733 6.7316e+09
    12.745 6.7914e+09
    12.758 6.8516e+09
     12.77 6.9122e+09
    12.782 6.9733e+09
    12.795 7.0347e+09
    12.807 7.0966e+09
     12.82  7.159e+09
    12.832 7.2218e+09
    12.844  7.285e+09
    12.857 7.3487e+09
    12.869 7.4128e+09
    12.882 7.4774e+09
    12.894 7.5425e+09
    12.906 7.6079e+09
    12.919 7.6739e+09
    12.931 7.7403e+09
    12.944 7.8072e+09
    12.956 7.8745e+09
    12.968 7.9423e+09
    12.981 8.0106e+09
    12.993 8.0793e+09
    13.006 8.1485e+09
    13.018 8.2182e+09
     13.03 8.2884e+09
    13.043  8.359e+09
    13.055 8.4301e+09
    13.068 8.5018e+09
     13.08 8.5739e+09
    13.092 8.6465e+09
    13.105 8.7195e+09
    13.117 8.7931e+09
     13.13 8.8672e+09
    13.142 8.9418e+09
    13.154 9.0169e+09
    13.167 9.0925e+09
    13.179 9.1686e+09
    13.192 9.2452e+09
    13.204 9.3223e+09
    13.216 9.3999e+09
    13.229 9.4781e+09
    13.241 9.5568e+09
    13.254  9.636e+09
    13.266 9.7157e+09
    13.278 9.7959e+09
    13.291 9.8767e+09
    13.303  9.958e+09
    13.316  1.004e+10
    13.328 1.0122e+10
     13.34 1.0205e+10
    13.353 1.0289e+10
    13.365 1.0373e+10
    13.378 1.0457e+10
     13.39 1.0542e+10
    13.402 1.0628e+10
    13.415 1.0714e+10
    13.427 1.0801e+10
     13.44 1.0888e+10
    13.452 1.0976e+10
    13.464 1.1065e+10
    13.477 1.1154e+10
    13.489 1.1243e+10
    13.502 1.1334e+10
    13.514 1.1424e+10
    13.526 1.1516e+10
    13.539 1.1608e+10
    13.551   1.17e+10
    13.564 1.1793e+10
    13.576 1.1887e+10
    13.588 1.1981e+10
    13.601 1.2076e+10
    13.613 1.2172e+10
    13.626 1.2268e+10
    13.638 1.2364e+10
     13.65 1.2462e+10
    13.663 1.2559e+10
    13.675 1.2658e+10
    13.688 1.2757e+10
      13.7 1.2857e+10
    13.712 1.2957e+10
    13.725 1.3058e+10
    13.737  1.316e+10
     13.75 1.3262e+10
    13.762 1.3365e+10
    13.774 1.3468e+10
    13.787 1.3572e+10
    13.799 1.3677e+10
    13.812 1.3783e+10
    13.824 1.3889e+10
    13.836 1.3995e+10
    13.849 1.4103e+10
    13.861 1.4211e+10
    13.874 1.4319e+10
    13.886 1.4429e+10
    13.898 1.4539e+10
    13.911 1.4649e+10
    13.923 1.4761e+10
    13.936 1.4873e+10
    13.948 1.4985e+10
     13.96 1.5099e+10
    13.973 1.5213e+10
    13.985 1.5327e+10
    13.997 1.5443e+10
     14.01 1.5559e+10
    14.022 1.5676e+10
    14.035 1.5793e+10
    14.047 1.5911e+10
    14.059  1.603e+10
    14.072  1.615e+10
    14.084  1.627e+10
    14.097 1.6391e+10
    14.109 1.6512e+10
    14.121 1.6635e+10
    14.134 1.6758e+10
    14.146 1.6882e+10
    14.159 1.7006e+10
    14.171 1.7132e+10
    14.183 1.7258e+10
    14.196 1.7384e+10
    14.208 1.7512e+10
    14.221  1.764e+10
    14.233 1.7769e+10
    14.245 1.7899e+10
    14.258 1.8029e+10
     14.27  1.816e+10
    14.283 1.8292e+10
    14.295 1.8425e+10
    14.307 1.8558e+10
     14.32 1.8693e+10
    14.332 1.8828e+10
    14.345 1.8963e+10
    14.357   1.91e+10
    14.369 1.9237e+10
    14.382 1.9375e+10
    14.394 1.9514e+10
    14.407 1.9654e+10
    14.419 1.9794e+10
    14.431 1.9935e+10
    14.444 2.0077e+10
    14.456  2.022e+10
    14.469 2.0364e+10
    14.481 2.0508e+10
    14.493 2.0654e+10
    14.506 2.0799e+10
    14.518 2.0946e+10
    14.531 2.1094e+10
    14.543 2.1242e+10
    14.555 2.1392e+10
    14.568 2.1542e+10
     14.58 2.1693e+10
    14.593 2.1844e+10
    14.605 2.1997e+10
    14.617 2.2151e+10
     14.63 2.2305e+10
    14.642  2.246e+10
    14.655 2.2616e+10
    14.667 2.2773e+10
    14.679  2.293e+10
    14.692 2.3089e+10
    14.704 2.3248e+10
    14.717 2.3408e+10
    14.729  2.357e+10
    14.741 2.3731e+10
    14.754 2.3894e+10
    14.766 2.4058e+10
    14.779 2.4223e+10
    14.791 2.4388e+10
    14.803 2.4554e+10
    14.816 2.4722e+10
    14.828  2.489e+10
    14.841 2.5059e+10
    14.853 2.5229e+10
    14.865   2.54e+10
    14.878 2.5571e+10
     14.89 2.5744e+10
    14.903 2.5918e+10
    14.915 2.6092e+10
    14.927 2.6267e+10
     14.94 2.6444e+10
    14.952 2.6621e+10
    14.965 2.6799e+10
    14.977 2.6978e+10
    14.989 2.7158e+10
    15.002 2.7339e+10
    15.014 2.7521e+10
    15.027 2.7704e+10
    15.039 2.7888e+10
    15.051 2.8072e+10
    15.064 2.8258e+10
    15.076 2.8445e+10
    15.089 2.8632e+10
    15.101 2.8821e+10
    15.113 2.9011e+10
    15.126 2.9201e+10
    15.138 2.9393e+10
    15.151 2.9585e+10
    15.163 2.9779e+10
    15.175 2.9973e+10
    15.188 3.0168e+10
      15.2 3.0365e+10
    15.213 3.0562e+10
    15.225  3.076e+10
    15.237  3.096e+10
     15.25  3.116e+10
    15.262 3.1362e+10
    15.275 3.1564e+10
    15.287 3.1768e+10
    15.299 3.1972e+10
    15.312 3.2178e+10
    15.324 3.2384e+10
    15.336 3.2592e+10
    15.349   3.28e+10
    15.361  3.301e+10
    15.374 3.3221e+10
    15.386 3.3432e+10
    15.398 3.3645e+10
    15.411 3.3859e+10
    15.423 3.4074e+10
    15.436  3.429e+10
    15.448 3.4507e+10
     15.46 3.4724e+10
    15.473 3.4944e+10
    15.485 3.5164e+10
    15.498 3.5385e+10
     15.51 3.5607e+10
    15.522 3.5831e+10
    15.535 3.6055e+10
    15.547 3.6281e+10
     15.56 3.6508e+10
    15.572 3.6735e+10
    15.584 3.6964e+10
    15.597 3.7194e+10
    15.609 3.7425e+10
    15.622 3.7657e+10
    15.634 3.7891e+10
    15.646 3.8125e+10
    15.659 3.8361e+10
    15.671 3.8597e+10
    15.684 3.8835e+10
    15.696 3.9074e+10
    15.708 3.9314e+10
    15.721 3.9555e+10
    15.733 3.9798e+10
    15.746 4.0041e+10
    15.758 4.0286e+10
     15.77 4.0532e+10
    15.783 4.0778e+10
    15.795 4.1026e+10
    15.808 4.1276e+10
     15.82 4.1526e+10
    15.832 4.1778e+10
    15.845  4.203e+10
    15.857 4.2284e+10
     15.87  4.254e+10
    15.882 4.2796e+10
    15.894 4.3053e+10
    15.907 4.3312e+10
    15.919 4.3572e+10
    15.932 4.3833e+10
    15.944 4.4095e+10
    15.956 4.4359e+10
    15.969 4.4624e+10
    15.981  4.489e+10
    15.994 4.5157e+10
    16.006 4.5425e+10
    16.018 4.5695e+10
    16.031 4.5966e+10
    16.043 4.6238e+10
    16.056 4.6511e+10
    16.068 4.6786e+10
     16.08 4.7061e+10
    16.093 4.7338e+10
    16.105 4.7617e+10
    16.118 4.7896e+10
     16.13 4.8177e+10
    16.142 4.8459e+10
    16.155 4.8742e+10
    16.167 4.9027e+10
     16.18 4.9313e+10
    16.192   4.96e+10
    16.204 4.9889e+10
    16.217 5.0178e+10
    16.229 5.0469e+10
    16.242 5.0762e+10
    16.254 5.1055e+10
    16.266  5.135e+10
    16.279 5.1646e+10
    16.291 5.1944e+10
    16.304 5.2243e+10
    16.316 5.2543e+10
    16.328 5.2844e+10
    16.341 5.3147e+10
    16.353 5.3451e+10
    16.366 5.3757e+10
    16.378 5.4063e+10
     16.39 5.4372e+10
    16.403 5.4681e+10
    16.415 5.4992e+10
    16.428 5.5304e+10
     16.44 5.5618e+10
    16.452 5.5932e+10
    16.465 5.6249e+10
    16.477 5.6566e+10
     16.49 5.6885e+10
    16.502 5.7206e+10
    16.514 5.7527e+10
    16.527  5.785e+10
    16.539 5.8175e+10
    16.552 5.8501e+10
    16.564 5.8828e+10
    16.576 5.9157e+10
    16.589 5.9487e+10
    16.601 5.9818e+10
    16.613 6.0151e+10
    16.626 6.0485e+10
    16.638 6.0821e+10
    16.651 6.1158e+10
    16.663 6.1497e+10
    16.675 6.1836e+10
    16.688 6.2178e+10
      16.7 6.2521e+10
    16.713 6.2865e+10
    16.725 6.3211e+10
    16.737 6.3558e+10
     16.75 6.3907e+10
    16.762 6.4257e+10
    16.775 6.4608e+10
    16.787 6.4961e+10
    16.799 6.5316e+10
    16.812 6.5672e+10
    16.824 6.6029e+10
    16.837 6.6388e+10
    16.849 6.6748e+10
    16.861  6.711e+10
    16.874 6.7473e+10
    16.886 6.7838e+10
    16.899 6.8204e+10
    16.911 6.8572e+10
    16.923 6.8941e+10
    16.936 6.9312e+10
    16.948 6.9685e+10
    16.961 7.0058e+10
    16.973 7.0434e+10
    16.985 7.0811e+10
    16.998 7.1189e+10
     17.01 7.1569e+10
    17.023  7.195e+10
    17.035 7.2333e+10
    17.047 7.2718e+10
     17.06 7.3104e+10
    17.072 7.3492e+10
    17.085 7.3881e+10
    17.097 7.4272e+10
    17.109 7.4664e+10
    17.122 7.5058e+10
    17.134 7.5454e+10
    17.147  7.585e+10
    17.159 7.6249e+10
    17.171 7.6649e+10
    17.184 7.7051e+10
    17.196 7.7455e+10
    17.209  7.786e+10
    17.221 7.8266e+10
    17.233 7.8675e+10
    17.246 7.9084e+10
    17.258 7.9495e+10
    17.271 7.9908e+10
    17.283 8.0323e+10
    17.295  8.074e+10
    17.308 8.1158e+10
     17.32 8.1577e+10
    17.333 8.1998e+10
    17.345 8.2421e+10
    17.357 8.2845e+10
     17.37 8.3271e+10
    17.382 8.3699e+10
    17.395 8.4128e+10
    17.407 8.4559e+10
    17.419 8.4992e+10
    17.432 8.5426e+10
    17.444 8.5863e+10
    17.457   8.63e+10
    17.469 8.6739e+10
    17.481 8.7181e+10
    17.494 8.7623e+10
    17.506 8.8068e+10
    17.519 8.8514e+10
    17.531 8.8962e+10
    17.543 8.9411e+10
    17.556 8.9863e+10
    17.568 9.0316e+10
    17.581  9.077e+10
    17.593 9.1227e+10
    17.605 9.1685e+10
    17.618 9.2145e+10
     17.63 9.2607e+10
    17.643  9.307e+10
    17.655 9.3535e+10
    17.667 9.4001e+10
     17.68  9.447e+10
    17.692  9.494e+10
    17.705 9.5412e+10
    17.717 9.5886e+10
    17.729 9.6362e+10
    17.742 9.6839e+10
    17.754 9.7318e+10
    17.767 9.7799e+10
    17.779 9.8281e+10
    17.791 9.8766e+10
    17.804 9.9252e+10
    17.816  9.974e+10
    17.829 1.0023e+11
    17.841 1.0072e+11
    17.853 1.0122e+11
    17.866 1.0171e+11
    17.878 1.0221e+11
    17.891 1.0271e+11
    17.903 1.0321e+11
    17.915 1.0371e+11
    17.928 1.0421e+11
     17.94 1.0472e+11
    17.952 1.0523e+11
    17.965 1.0574e+11
    17.977 1.0625e+11
     17.99 1.0676e+11
    18.002 1.0728e+11
    18.014  1.078e+11
    18.027 1.0831e+11
    18.039 1.0884e+11
    18.052 1.0936e+11
    18.064 1.0988e+11
    18.076 1.1041e+11
    18.089 1.1094e+11
    18.101 1.1147e+11
    18.114   1.12e+11
    18.126 1.1253e+11
    18.138 1.1307e+11
    18.151 1.1361e+11
    18.163 1.1415e+11
    18.176 1.1469e+11
    18.188 1.1523e+11
      18.2 1.1578e+11
    18.213 1.1633e+11
    18.225 1.1688e+11
    18.238 1.1743e+11
     18.25 1.1798e+11
    18.262 1.1854e+11
    18.275 1.1909e+11
    18.287 1.1965e+11
      18.3 1.2021e+11
    18.312 1.2078e+11
    18.324 1.2134e+11
    18.337 1.2191e+11
    18.349 1.2248e+11
    18.362 1.2305e+11
    18.374 1.2362e+11
    18.386  1.242e+11
    18.399 1.2477e+11
    18.411 1.2535e+11
    18.424 1.2593e+11
    18.436 1.2651e+11
    18.448  1.271e+11
    18.461 1.2769e+11
    18.473 1.2827e+11
    18.486 1.2886e+11
    18.498 1.2946e+11
     18.51 1.3005e+11
    18.523 1.3065e+11
    18.535 1.3125e+11
    18.548 1.3185e+11
     18.56 1.3245e+11
    18.572 1.3306e+11
    18.585 1.3366e+11
    18.597 1.3427e+11
     18.61 1.3488e+11
    18.622  1.355e+11
    18.634 1.3611e+11
    18.647 1.3673e+11
    18.659 1.3735e+11
    18.672 1.3797e+11
    18.684 1.3859e+11
    18.696 1.3922e+11
    18.709 1.3985e+11
    18.721 1.4048e+11
    18.734 1.4111e+11
    18.746 1.4174e+11
    18.758 1.4238e+11
    18.771 1.4302e+11
    18.783 1.4366e+11
    18.796  1.443e+11
    18.808 1.4494e+11
     18.82 1.4559e+11
    18.833 1.4624e+11
    18.845 1.4689e+11
    18.858 1.4754e+11
     18.87  1.482e+11
    18.882 1.4885e+11
    18.895 1.4951e+11
    18.907 1.5018e+11
     18.92 1.5084e+11
    18.932  1.515e+11
    18.944 1.5217e+11
    18.957 1.5284e+11
    18.969 1.5352e+11
    18.982 1.5419e+11
    18.994 1.5487e+11
    19.006 1.5555e+11
    19.019 1.5623e+11
    19.031 1.5691e+11
    19.044  1.576e+11
    19.056 1.5828e+11
    19.068 1.5897e+11
    19.081 1.5966e+11
    19.093 1.6036e+11
    19.106 1.6106e+11
    19.118 1.6175e+11
     19.13 1.6246e+11
    19.143 1.6316e+11
    19.155 1.6386e+11
    19.168 1.6457e+11
     19.18 1.6528e+11
    19.192 1.6599e+11
    19.205 1.6671e+11
    19.217 1.6742e+11
     19.23 1.6814e+11
    19.242 1.6886e+11
    19.254 1.6959e+11
    19.267 1.7031e+11
    19.279 1.7104e+11
    19.291 1.7177e+11
    19.304  1.725e+11
    19.316 1.7324e+11
    19.329 1.7398e+11
    19.341 1.7471e+11
    19.353 1.7546e+11
    19.366  1.762e+11
    19.378 1.7695e+11
    19.391 1.7769e+11
    19.403 1.7845e+11
    19.415  1.792e+11
    19.428 1.7995e+11
     19.44 1.8071e+11
    19.453 1.8147e+11
    19.465 1.8223e+11
    19.477   1.83e+11
     19.49 1.8377e+11
    19.502 1.8454e+11
    19.515 1.8531e+11
    19.527 1.8608e+11
    19.539 1.8686e+11
    19.552 1.8764e+11
    19.564 1.8842e+11
    19.577  1.892e+11
    19.589 1.8999e+11
    19.601 1.9078e+11
    19.614 1.9157e+11
    19.626 1.9236e+11
    19.639 1.9316e+11
    19.651 1.9395e+11
    19.663 1.9475e+11
    19.676 1.9556e+11
    19.688 1.9636e+11
    19.701 1.9717e+11
    19.713 1.9798e+11
    19.725 1.9879e+11
    19.738 1.9961e+11
     19.75 2.0042e+11
    19.763 2.0124e+11
    19.775 2.0206e+11
    19.787 2.0289e+11
      19.8 2.0372e+11
    19.812 2.0455e+11
    19.825 2.0538e+11
    19.837 2.0621e+11
    19.849 2.0705e+11
    19.862 2.0789e+11
    19.874 2.0873e+11
    19.887 2.0957e+11
    19.899 2.1042e+11
    19.911 2.1127e+11
    19.924 2.1212e+11
    19.936 2.1297e+11
    19.949 2.1383e+11
    19.961 2.1469e+11
    19.973 2.1555e+11
    19.986 2.1642e+11
    19.998 2.1728e+11
    20.011 2.1815e+11
    20.023 2.1902e+11
    20.035  2.199e+11
    20.048 2.2077e+11
     20.06 2.2165e+11
    20.073 2.2253e+11
    20.085 2.2342e+11
    20.097 2.2431e+11
     20.11 2.2519e+11
    20.122 2.2609e+11
    20.135 2.2698e+11
    20.147 2.2788e+11
    20.159 2.2878e+11
    20.172 2.2968e+11
    20.184 2.3058e+11
    20.197 2.3149e+11
    20.209  2.324e+11
    20.221 2.3331e+11
    20.234 2.3423e+11
    20.246 2.3514e+11
    20.259 2.3607e+11
    20.271 2.3699e+11
    20.283 2.3791e+11
    20.296 2.3884e+11
    20.308 2.3977e+11
    20.321  2.407e+11
    20.333 2.4164e+11
    20.345 2.4258e+11
    20.358 2.4352e+11
     20.37 2.4446e+11
    20.383 2.4541e+11
    20.395 2.4636e+11
    20.407 2.4731e+11
     20.42 2.4826e+11
    20.432 2.4922e+11
    20.445 2.5018e+11
    20.457 2.5114e+11
    20.469 2.5211e+11
    20.482 2.5307e+11
    20.494 2.5404e+11
    20.507 2.5501e+11
    20.519 2.5599e+11
    20.531 2.5697e+11
    20.544 2.5795e+11
    20.556 2.5893e+11
    20.569 2.5992e+11
    20.581 2.6091e+11
    20.593  2.619e+11
    20.606 2.6289e+11
    20.618 2.6389e+11
     20.63 2.6489e+11
    20.643 2.6589e+11
    20.655  2.669e+11
    20.668  2.679e+11
     20.68 2.6891e+11
    20.692 2.6993e+11
    20.705 2.7094e+11
    20.717 2.7196e+11
     20.73 2.7298e+11
    20.742 2.7401e+11
    20.754 2.7503e+11
    20.767 2.7606e+11
    20.779  2.771e+11
    20.792 2.7813e+11
    20.804 2.7917e+11
    20.816 2.8021e+11
    20.829 2.8125e+11
    20.841  2.823e+11
    20.854 2.8335e+11
    20.866  2.844e+11
    20.878 2.8545e+11
    20.891 2.8651e+11
    20.903 2.8757e+11
    20.916 2.8863e+11
    20.928  2.897e+11
     20.94 2.9077e+11
    20.953 2.9184e+11
    20.965 2.9291e+11
    20.978 2.9399e+11
     20.99 2.9507e+11
    21.002 2.9615e+11
    21.015 2.9724e+11
    21.027 2.9833e+11
     21.04 2.9942e+11
    21.052 3.0051e+11
    21.064 3.0161e+11
    21.077 3.0271e+11
    21.089 3.0381e+11
    21.102 3.0492e+11
    21.114 3.0602e+11
    21.126 3.0713e+11
    21.139 3.0825e+11
    21.151 3.0937e+11
    21.164 3.1049e+11
    21.176 3.1161e+11
    21.188 3.1273e+11
    21.201 3.1386e+11
    21.213 3.1499e+11
    21.226 3.1613e+11
    21.238 3.1726e+11
     21.25  3.184e+11
    21.263 3.1954e+11
    21.275 3.2069e+11
    21.288 3.2184e+11
      21.3 3.2299e+11
    21.312 3.2414e+11
    21.325  3.253e+11
    21.337 3.2646e+11
     21.35 3.2763e+11
    21.362 3.2879e+11
    21.374 3.2996e+11
    21.387 3.3113e+11
    21.399 3.3231e+11
    21.412 3.3348e+11
    21.424 3.3467e+11
    21.436 3.3585e+11
    21.449 3.3704e+11
    21.461 3.3823e+11
    21.474 3.3942e+11
    21.486 3.4062e+11
    21.498 3.4181e+11
    21.511 3.4301e+11
    21.523 3.4422e+11
    21.536 3.4543e+11
    21.548 3.4664e+11
     21.56 3.4785e+11
    21.573 3.4907e+11
    21.585 3.5029e+11
    21.598 3.5151e+11
     21.61 3.5273e+11
    21.622 3.5396e+11
    21.635 3.5519e+11
    21.647 3.5643e+11
     21.66 3.5767e+11
    21.672 3.5891e+11
    21.684 3.6015e+11
    21.697  3.614e+11
    21.709 3.6265e+11
    21.722  3.639e+11
    21.734 3.6516e+11
    21.746 3.6641e+11
    21.759 3.6768e+11
    21.771 3.6894e+11
    21.784 3.7021e+11
    21.796 3.7148e+11
    21.808 3.7275e+11
    21.821 3.7403e+11
    21.833 3.7531e+11
    21.846 3.7659e+11
    21.858 3.7788e+11
     21.87 3.7917e+11
    21.883 3.8046e+11
    21.895 3.8176e+11
    21.908 3.8306e+11
     21.92 3.8436e+11
    21.932 3.8566e+11
    21.945 3.8697e+11
    21.957 3.8828e+11
    21.969  3.896e+11
    21.982 3.9092e+11
    21.994 3.9224e+11
    22.007 3.9356e+11
    22.019 3.9489e+11
    22.031 3.9622e+11
    22.044 3.9755e+11
    22.056 3.9889e+11
    22.069 4.0022e+11
    22.081 4.0157e+11
    22.093 4.0291e+11
    22.106 4.0426e+11
    22.118 4.0562e+11
    22.131 4.0697e+11
    22.143 4.0833e+11
    22.155 4.0969e+11
    22.168 4.1105e+11
     22.18 4.1242e+11
    22.193 4.1379e+11
    22.205 4.1517e+11
    22.217 4.1654e+11
     22.23 4.1792e+11
    22.242 4.1931e+11
    22.255  4.207e+11
    22.267 4.2208e+11
    22.279 4.2348e+11
    22.292 4.2487e+11
    22.304 4.2628e+11
    22.317 4.2768e+11
    22.329 4.2908e+11
    22.341 4.3049e+11
    22.354 4.3191e+11
    22.366 4.3332e+11
    22.379 4.3474e+11
    22.391 4.3616e+11
    22.403 4.3759e+11
    22.416 4.3902e+11
    22.428 4.4045e+11
    22.441 4.4188e+11
    22.453 4.4332e+11
    22.465 4.4477e+11
    22.478 4.4621e+11
     22.49 4.4766e+11
    22.503 4.4911e+11
    22.515 4.5056e+11
    22.527 4.5202e+11
     22.54 4.5348e+11
    22.552 4.5495e+11
    22.565 4.5642e+11
    22.577 4.5789e+11
    22.589 4.5936e+11
    22.602 4.6084e+11
    22.614 4.6232e+11
    22.627  4.638e+11
    22.639 4.6529e+11
    22.651 4.6678e+11
    22.664 4.6828e+11
    22.676 4.6978e+11
    22.689 4.7128e+11
    22.701 4.7278e+11
    22.713 4.7429e+11
    22.726  4.758e+11
    22.738 4.7731e+11
    22.751 4.7883e+11
    22.763 4.8035e+11
    22.775 4.8188e+11
    22.788  4.834e+11
      22.8 4.8494e+11
    22.813 4.8647e+11
    22.825 4.8801e+11
    22.837 4.8955e+11
     22.85 4.9109e+11
    22.862 4.9264e+11
    22.875 4.9419e+11
    22.887 4.9575e+11
    22.899 4.9731e+11
    22.912 4.9887e+11
    22.924 5.0043e+11
    22.937   5.02e+11
    22.949 5.0357e+11
    22.961 5.0515e+11
    22.974 5.0672e+11
    22.986  5.083e+11
    22.999 5.0989e+11
    23.011 5.1148e+11
    23.023 5.1307e+11
    23.036 5.1466e+11
    23.048 5.1626e+11
    23.061 5.1787e+11
    23.073 5.1947e+11
    23.085 5.2108e+11
    23.098 5.2269e+11
     23.11 5.2431e+11
    23.123 5.2593e+11
    23.135 5.2755e+11
    23.147 5.2918e+11
     23.16  5.308e+11
    23.172 5.3244e+11
    23.185 5.3407e+11
    23.197 5.3572e+11
    23.209 5.3736e+11
    23.222   5.39e+11
    23.234 5.4065e+11
    23.247 5.4231e+11
    23.259 5.4396e+11
    23.271 5.4563e+11
    23.284 5.4729e+11
    23.296 5.4896e+11
    23.308 5.5063e+11
    23.321  5.523e+11
    23.333 5.5398e+11
    23.346 5.5566e+11
    23.358 5.5735e+11
     23.37 5.5903e+11
    23.383 5.6073e+11
    23.395 5.6242e+11
    23.408 5.6412e+11
     23.42 5.6583e+11
    23.432 5.6753e+11
    23.445 5.6924e+11
    23.457 5.7095e+11
     23.47 5.7267e+11
    23.482 5.7439e+11
    23.494 5.7612e+11
    23.507 5.7784e+11
    23.519 5.7957e+11
    23.532 5.8131e+11
    23.544 5.8304e+11
    23.556 5.8479e+11
    23.569 5.8653e+11
    23.581 5.8828e+11
    23.594 5.9003e+11
    23.606 5.9179e+11
    23.618 5.9355e+11
    23.631 5.9531e+11
    23.643 5.9708e+11
    23.656 5.9885e+11
    23.668 6.0062e+11
     23.68  6.024e+11
    23.693 6.0418e+11
    23.705 6.0596e+11
    23.718 6.0775e+11
     23.73 6.0954e+11
    23.742 6.1133e+11
    23.755 6.1314e+11
    23.767 6.1494e+11
     23.78 6.1674e+11
    23.792 6.1855e+11
    23.804 6.2037e+11
    23.817 6.2218e+11
    23.829   6.24e+11
    23.842 6.2582e+11
    23.854 6.2765e+11
    23.866 6.2948e+11
    23.879 6.3132e+11
    23.891 6.3316e+11
    23.904   6.35e+11
    23.916 6.3684e+11
    23.928 6.3869e+11
    23.941 6.4055e+11
    23.953  6.424e+11
    23.966 6.4426e+11
    23.978 6.4613e+11
     23.99 6.4799e+11
    24.003 6.4987e+11
    24.015 6.5174e+11
    24.028 6.5362e+11
     24.04  6.555e+11
    24.052 6.5739e+11
    24.065 6.5928e+11
    24.077 6.6117e+11
     24.09 6.6307e+11
    24.102 6.6497e+11
    24.114 6.6687e+11
    24.127 6.6878e+11
    24.139 6.7069e+11
    24.152 6.7261e+11
    24.164 6.7452e+11
    24.176 6.7644e+11
    24.189 6.7837e+11
    24.201  6.803e+11
    24.214 6.8224e+11
    24.226 6.8417e+11
    24.238 6.8612e+11
    24.251 6.8806e+11
    24.263 6.9001e+11
    24.276 6.9196e+11
    24.288 6.9392e+11
      24.3 6.9588e+11
    24.313 6.9784e+11
    24.325 6.9981e+11
    24.338 7.0178e+11
     24.35 7.0376e+11
    24.362 7.0573e+11
    24.375 7.0771e+11
    24.387  7.097e+11
      24.4 7.1169e+11
    24.412 7.1369e+11
    24.424 7.1568e+11
    24.437 7.1768e+11
    24.449 7.1969e+11
    24.462  7.217e+11
    24.474 7.2371e+11
    24.486 7.2572e+11
    24.499 7.2775e+11
    24.511 7.2977e+11
    24.524  7.318e+11
    24.536 7.3383e+11
    24.548 7.3586e+11
    24.561  7.379e+11
    24.573 7.3994e+11
    24.585 7.4199e+11
    24.598 7.4404e+11
     24.61  7.461e+11
    24.623 7.4815e+11
    24.635 7.5021e+11
    24.647 7.5228e+11
     24.66 7.5435e+11
    24.672 7.5642e+11
    24.685 7.5849e+11
    24.697 7.6058e+11
    24.709 7.6266e+11
    24.722 7.6475e+11
    24.734 7.6684e+11
    24.747 7.6894e+11
    24.759 7.7104e+11
    24.771 7.7314e+11
    24.784 7.7525e+11
    24.796 7.7736e+11
    24.809 7.7948e+11
    24.821  7.816e+11
    24.833 7.8372e+11
    24.846 7.8584e+11
    24.858 7.8797e+11
    24.871 7.9011e+11
    24.883 7.9225e+11
    24.895 7.9439e+11
    24.908 7.9654e+11
     24.92 7.9869e+11
    24.933 8.0084e+11
    24.945   8.03e+11
    24.957 8.0516e+11
     24.97 8.0732e+11
    24.982 8.0949e+11
    24.995 8.1167e+11
    25.007 8.1384e+11
    25.019 8.1603e+11
    25.032 8.1821e+11
    25.044  8.204e+11
    25.057 8.2259e+11
    25.069 8.2479e+11
    25.081 8.2699e+11
    25.094 8.2919e+11
    25.106  8.314e+11
    25.119 8.3361e+11
    25.131 8.3583e+11
    25.143 8.3805e+11
    25.156 8.4027e+11
    25.168  8.425e+11
    25.181 8.4473e+11
    25.193 8.4697e+11
    25.205 8.4921e+11
    25.218 8.5145e+11
     25.23  8.537e+11
    25.243 8.5595e+11
    25.255  8.582e+11
    25.267 8.6046e+11
     25.28 8.6272e+11
    25.292 8.6499e+11
    25.305 8.6727e+11
    25.317 8.6954e+11
    25.329 8.7182e+11
    25.342  8.741e+11
    25.354 8.7639e+11
    25.367 8.7868e+11
    25.379 8.8097e+11
    25.391 8.8327e+11
    25.404 8.8557e+11
    25.416 8.8788e+11
    25.429 8.9019e+11
    25.441 8.9251e+11
    25.453 8.9482e+11
    25.466 8.9715e+11
    25.478 8.9948e+11
    25.491  9.018e+11
    25.503 9.0414e+11
    25.515 9.0648e+11
    25.528 9.0882e+11
     25.54 9.1117e+11
    25.553 9.1352e+11
    25.565 9.1587e+11
    25.577 9.1823e+11
     25.59 9.2059e+11
    25.602 9.2296e+11
    25.615 9.2533e+11
    25.627 9.2771e+11
    25.639 9.3008e+11
    25.652 9.3247e+11
    25.664 9.3485e+11
    25.677 9.3725e+11
    25.689 9.3964e+11
    25.701 9.4204e+11
    25.714 9.4444e+11
    25.726 9.4684e+11
    25.739 9.4926e+11
    25.751 9.5167e+11
    25.763 9.5409e+11
    25.776 9.5651e+11
    25.788 9.5894e+11
    25.801 9.6137e+11
    25.813 9.6381e+11
    25.825 9.6624e+11
    25.838 9.6869e+11
     25.85 9.7113e+11
    25.863 9.7359e+11
    25.875 9.7604e+11
    25.887  9.785e+11
      25.9 9.8096e+11
    25.912 9.8343e+11
    25.924  9.859e+11
    25.937 9.8838e+11
    25.949 9.9086e+11
    25.962 9.9334e+11
    25.974 9.9583e+11
    25.986 9.9832e+11
    25.999 1.0008e+12
    26.011 1.0033e+12
    26.024 1.0058e+12
    26.036 1.0083e+12
    26.048 1.0108e+12
    26.061 1.0134e+12
    26.073 1.0159e+12
    26.086 1.0184e+12
    26.098 1.0209e+12
     26.11 1.0235e+12
    26.123  1.026e+12
    26.135 1.0285e+12
    26.148 1.0311e+12
     26.16 1.0336e+12
    26.172 1.0362e+12
    26.185 1.0387e+12
    26.197 1.0413e+12
     26.21 1.0439e+12
    26.222 1.0464e+12
    26.234  1.049e+12
    26.247 1.0516e+12
    26.259 1.0542e+12
    26.272 1.0568e+12
    26.284 1.0594e+12
    26.296  1.062e+12
    26.309 1.0646e+12
    26.321 1.0672e+12
    26.334 1.0698e+12
    26.346 1.0724e+12
    26.358  1.075e+12
    26.371 1.0776e+12
    26.383 1.0802e+12
    26.396 1.0829e+12
    26.408 1.0855e+12
     26.42 1.0881e+12
    26.433 1.0908e+12
    26.445 1.0934e+12
    26.458 1.0961e+12
     26.47 1.0987e+12
    26.482 1.1014e+12
    26.495  1.104e+12
    26.507 1.1067e+12
     26.52 1.1094e+12
    26.532  1.112e+12
    26.544 1.1147e+12
    26.557 1.1174e+12
    26.569 1.1201e+12
    26.582 1.1228e+12
    26.594 1.1255e+12
    26.606 1.1282e+12
    26.619 1.1309e+12
    26.631 1.1336e+12
    26.644 1.1363e+12
    26.656  1.139e+12
    26.668 1.1417e+12
    26.681 1.1445e+12
    26.693 1.1472e+12
    26.706 1.1499e+12
    26.718 1.1527e+12
     26.73 1.1554e+12
    26.743 1.1581e+12
    26.755 1.1609e+12
    26.768 1.1636e+12
     26.78 1.1664e+12
    26.792 1.1692e+12
    26.805 1.1719e+12
    26.817 1.1747e+12
     26.83 1.1775e+12
    26.842 1.1803e+12
    26.854  1.183e+12
    26.867 1.1858e+12
    26.879 1.1886e+12
    26.892 1.1914e+12
    26.904 1.1942e+12
    26.916  1.197e+12
    26.929 1.1998e+12
    26.941 1.2026e+12
    26.954 1.2055e+12
    26.966 1.2083e+12
    26.978 1.2111e+12
    26.991 1.2139e+12
    27.003 1.2168e+12
    27.016 1.2196e+12
    27.028 1.2224e+12
     27.04 1.2253e+12
    27.053 1.2281e+12
    27.065  1.231e+12
    27.078 1.2339e+12
     27.09 1.2367e+12
    27.102 1.2396e+12
    27.115 1.2425e+12
    27.127 1.2453e+12
     27.14 1.2482e+12
    27.152 1.2511e+12
    27.164  1.254e+12
    27.177 1.2569e+12
    27.189 1.2598e+12
    27.202 1.2627e+12
    27.214 1.2656e+12
    27.226 1.2685e+12
    27.239 1.2714e+12
    27.251 1.2743e+12
    27.263 1.2773e+12
    27.276 1.2802e+12
    27.288 1.2831e+12
    27.301 1.2861e+12
    27.313  1.289e+12
    27.325 1.2919e+12
    27.338 1.2949e+12
     27.35 1.2978e+12
    27.363 1.3008e+12
    27.375 1.3038e+12
    27.387 1.3067e+12
      27.4 1.3097e+12
    27.412 1.3127e+12
    27.425 1.3157e+12
    27.437 1.3186e+12
    27.449 1.3216e+12
    27.462 1.3246e+12
    27.474 1.3276e+12
    27.487 1.3306e+12
    27.499 1.3336e+12
    27.511 1.3366e+12
    27.524 1.3397e+12
    27.536 1.3427e+12
    27.549 1.3457e+12
    27.561 1.3487e+12
    27.573 1.3518e+12
    27.586 1.3548e+12
    27.598 1.3578e+12
    27.611 1.3609e+12
    27.623 1.3639e+12
    27.635  1.367e+12
    27.648   1.37e+12
     27.66 1.3731e+12
    27.673 1.3762e+12
    27.685 1.3792e+12
    27.697 1.3823e+12
     27.71 1.3854e+12
    27.722 1.3885e+12
    27.735 1.3916e+12
    27.747 1.3947e+12
    27.759 1.3978e+12
    27.772 1.4009e+12
    27.784  1.404e+12
    27.797 1.4071e+12
    27.809 1.4102e+12
    27.821 1.4133e+12
    27.834 1.4164e+12
    27.846 1.4196e+12
    27.859 1.4227e+12
    27.871 1.4258e+12
    27.883  1.429e+12
    27.896 1.4321e+12
    27.908 1.4353e+12
    27.921 1.4384e+12
    27.933 1.4416e+12
    27.945 1.4447e+12
    27.958 1.4479e+12
     27.97 1.4511e+12
    27.983 1.4542e+12
    27.995 1.4574e+12
    28.007 1.4606e+12
     28.02 1.4638e+12
    28.032  1.467e+12
    28.045 1.4702e+12
    28.057 1.4734e+12
    28.069 1.4766e+12
    28.082 1.4798e+12
    28.094  1.483e+12
    28.107 1.4862e+12
    28.119 1.4895e+12
    28.131 1.4927e+12
    28.144 1.4959e+12
    28.156 1.4992e+12
    28.169 1.5024e+12
    28.181 1.5057e+12
    28.193 1.5089e+12
    28.206 1.5122e+12
    28.218 1.5154e+12
    28.231 1.5187e+12
    28.243  1.522e+12
    28.255 1.5252e+12
    28.268 1.5285e+12
     28.28 1.5318e+12
    28.293 1.5351e+12
    28.305 1.5384e+12
    28.317 1.5416e+12
     28.33  1.545e+12
    28.342 1.5483e+12
    28.355 1.5516e+12
    28.367 1.5549e+12
    28.379 1.5582e+12
    28.392 1.5615e+12
    28.404 1.5648e+12
    28.417 1.5682e+12
    28.429 1.5715e+12
    28.441 1.5748e+12
    28.454 1.5782e+12
    28.466 1.5815e+12
    28.479 1.5849e+12
    28.491 1.5883e+12
    28.503 1.5916e+12
    28.516  1.595e+12
    28.528 1.5983e+12
    28.541 1.6017e+12
    28.553 1.6051e+12
    28.565 1.6085e+12
    28.578 1.6119e+12
     28.59 1.6153e+12
    28.602 1.6187e+12
    28.615 1.6221e+12
    28.627 1.6255e+12
     28.64 1.6289e+12
    28.652 1.6323e+12
    28.664 1.6357e+12
    28.677 1.6391e+12
    28.689 1.6426e+12
    28.702  1.646e+12
    28.714 1.6494e+12
    28.726 1.6529e+12
    28.739 1.6563e+12
    28.751 1.6598e+12
    28.764 1.6632e+12
    28.776 1.6667e+12
    28.788 1.6702e+12
    28.801 1.6736e+12
    28.813 1.6771e+12
    28.826 1.6806e+12
    28.838 1.6841e+12
     28.85 1.6875e+12
    28.863  1.691e+12
    28.875 1.6945e+12
    28.888  1.698e+12
      28.9 1.7015e+12
    28.912  1.705e+12
    28.925 1.7086e+12
    28.937 1.7121e+12
     28.95 1.7156e+12
    28.962 1.7191e+12
    28.974 1.7227e+12
    28.987 1.7262e+12
    28.999 1.7297e+12
    29.012 1.7333e+12
    29.024 1.7368e+12
    29.036 1.7404e+12
    29.049 1.7439e+12
    29.061 1.7475e+12
    29.074 1.7511e+12
    29.086 1.7546e+12
    29.098 1.7582e+12
    29.111 1.7618e+12
    29.123 1.7654e+12
    29.136  1.769e+12
    29.148 1.7726e+12
     29.16 1.7762e+12
    29.173 1.7798e+12
    29.185 1.7834e+12
    29.198  1.787e+12
     29.21 1.7906e+12
    29.222 1.7942e+12
    29.235 1.7979e+12
    29.247 1.8015e+12
     29.26 1.8051e+12
    29.272 1.8088e+12
    29.284 1.8124e+12
    29.297 1.8161e+12
    29.309 1.8197e+12
    29.322 1.8234e+12
    29.334  1.827e+12
    29.346 1.8307e+12
    29.359 1.8344e+12
    29.371 1.8381e+12
    29.384 1.8417e+12
    29.396 1.8454e+12
    29.408 1.8491e+12
    29.421 1.8528e+12
    29.433 1.8565e+12
    29.446 1.8602e+12
    29.458 1.8639e+12
     29.47 1.8676e+12
    29.483 1.8714e+12
    29.495 1.8751e+12
    29.508 1.8788e+12
     29.52 1.8825e+12
    29.532 1.8863e+12
    29.545   1.89e+12
    29.557 1.8938e+12
     29.57 1.8975e+12
    29.582 1.9012e+12
    29.594  1.905e+12
    29.607 1.9088e+12
    29.619 1.9125e+12
    29.632 1.9163e+12
    29.644 1.9201e+12
    29.656 1.9239e+12
    29.669 1.9277e+12
    29.681 1.9315e+12
    29.694 1.9352e+12
    29.706  1.939e+12
    29.718 1.9428e+12
    29.731 1.9466e+12
    29.743 1.9505e+12
    29.756 1.9543e+12
    29.768 1.9581e+12
     29.78 1.9619e+12
    29.793 1.9658e+12
    29.805 1.9696e+12
    29.818 1.9734e+12
     29.83 1.9773e+12
    29.842 1.9811e+12
    29.855  1.985e+12
    29.867 1.9888e+12
     29.88 1.9927e+12
    29.892 1.9966e+12
    29.904 2.0005e+12
    29.917 2.0043e+12
    29.929 2.0082e+12
    29.941 2.0121e+12
    29.954  2.016e+12
    29.966 2.0199e+12
    29.979 2.0238e+12
    29.991 2.0277e+12
    30.003 2.0316e+12
