RRKM rate, sf=0.970, S*=11.46, E0=2.18 and Delta=2.18
   En (eV)    k (s-1)
         0          0
  0.012398          0
  0.024796          0
  0.037194          0
  0.049593          0
  0.061991          0
  0.074389          0
  0.086787          0
  0.099185          0
   0.11158          0
   0.12398          0
   0.13638          0
   0.14878          0
   0.16118          0
   0.17357          0
   0.18597          0
   0.19837          0
   0.21077          0
   0.22317          0
   0.23556          0
   0.24796          0
   0.26036          0
   0.27276          0
   0.28516          0
   0.29756          0
   0.30995          0
   0.32235          0
   0.33475          0
   0.34715          0
   0.35955          0
   0.37194          0
   0.38434          0
   0.39674          0
   0.40914          0
   0.42154          0
   0.43393          0
   0.44633          0
   0.45873          0
   0.47113          0
   0.48353          0
   0.49593          0
   0.50832          0
   0.52072          0
   0.53312          0
   0.54552          0
   0.55792          0
   0.57031          0
   0.58271          0
   0.59511          0
   0.60751          0
   0.61991          0
    0.6323          0
    0.6447          0
    0.6571          0
    0.6695          0
    0.6819          0
    0.6943          0
   0.70669          0
   0.71909          0
   0.73149          0
   0.74389          0
   0.75629          0
   0.76868          0
   0.78108          0
   0.79348          0
   0.80588          0
   0.81828          0
   0.83067          0
   0.84307          0
   0.85547          0
   0.86787          0
   0.88027          0
   0.89267          0
   0.90506          0
   0.91746          0
   0.92986          0
   0.94226          0
   0.95466          0
   0.96705          0
   0.97945          0
   0.99185          0
    1.0042          0
    1.0166          0
     1.029          0
    1.0414          0
    1.0538          0
    1.0662          0
    1.0786          0
     1.091          0
    1.1034          0
    1.1158          0
    1.1282          0
    1.1406          0
     1.153          0
    1.1654          0
    1.1778          0
    1.1902          0
    1.2026          0
     1.215          0
    1.2274          0
    1.2398          0
    1.2522          0
    1.2646          0
     1.277          0
    1.2894          0
    1.3018          0
    1.3142          0
    1.3266          0
     1.339          0
    1.3514          0
    1.3638          0
    1.3762          0
    1.3886          0
     1.401          0
    1.4134          0
    1.4258          0
    1.4382          0
    1.4506          0
     1.463          0
    1.4754          0
    1.4878          0
    1.5002          0
    1.5126          0
     1.525          0
    1.5374          0
    1.5498          0
    1.5622          0
    1.5746          0
     1.587          0
    1.5994          0
    1.6118          0
    1.6242          0
    1.6366          0
     1.649          0
    1.6613          0
    1.6737          0
    1.6861          0
    1.6985          0
    1.7109          0
    1.7233          0
    1.7357          0
    1.7481          0
    1.7605          0
    1.7729          0
    1.7853          0
    1.7977          0
    1.8101          0
    1.8225          0
    1.8349          0
    1.8473          0
    1.8597          0
    1.8721          0
    1.8845          0
    1.8969          0
    1.9093          0
    1.9217          0
    1.9341          0
    1.9465          0
    1.9589          0
    1.9713          0
    1.9837          0
    1.9961          0
    2.0085          0
    2.0209          0
    2.0333          0
    2.0457          0
    2.0581          0
    2.0705          0
    2.0829          0
    2.0953          0
    2.1077          0
    2.1201          0
    2.1325          0
    2.1449          0
    2.1573          0
    2.1697          0
    2.1821          0
    2.1945 7.4505e-09
    2.2069  1.916e-08
    2.2193 5.4772e-08
    2.2317 1.0339e-07
    2.2441 2.0574e-07
    2.2565 3.6378e-07
    2.2689 6.4002e-07
    2.2813 1.0645e-06
    2.2937 1.7165e-06
    2.3061    2.7e-06
    2.3185 4.1479e-06
    2.3308 6.2654e-06
    2.3432  9.271e-06
    2.3556 1.3514e-05
     2.368 1.9401e-05
    2.3804 2.7523e-05
    2.3928 3.8563e-05
    2.4052 5.3453e-05
    2.4176 7.3315e-05
      2.43 9.9643e-05
    2.4424 0.00013424
    2.4548 0.00017938
    2.4672 0.00023785
    2.4796 0.00031309
     2.492 0.00040937
    2.5044 0.00053183
    2.5168 0.00068673
    2.5292  0.0008816
    2.5416  0.0011256
     2.554  0.0014296
    2.5664  0.0018068
    2.5788  0.0022726
    2.5912  0.0028454
    2.6036  0.0035472
     2.616  0.0044037
    2.6284   0.005445
    2.6408  0.0067068
    2.6532  0.0082302
    2.6656   0.010064
     2.678   0.012264
    2.6904   0.014895
    2.7028   0.018033
    2.7152   0.021764
    2.7276   0.026189
      2.74   0.031423
    2.7524   0.037597
    2.7648   0.044863
    2.7772   0.053391
    2.7896   0.063379
     2.802    0.07505
    2.8144   0.088655
    2.8268    0.10448
    2.8392    0.12286
    2.8516    0.14414
     2.864    0.16875
    2.8764    0.19715
    2.8888    0.22986
    2.9012    0.26746
    2.9136    0.31061
     2.926    0.36005
    2.9384    0.41658
    2.9508    0.48113
    2.9632     0.5547
    2.9756    0.63843
     2.988    0.73357
    3.0003     0.8415
    3.0127    0.96378
    3.0251     1.1021
    3.0375     1.2584
    3.0499     1.4346
    3.0623     1.6332
    3.0747     1.8565
    3.0871     2.1075
    3.0995     2.3891
    3.1119     2.7047
    3.1243     3.0579
    3.1367     3.4529
    3.1491     3.8939
    3.1615     4.3858
    3.1739     4.9337
    3.1863     5.5436
    3.1987     6.2215
    3.2111     6.9743
    3.2235     7.8094
    3.2359     8.7348
    3.2483     9.7593
    3.2607     10.892
    3.2731     12.144
    3.2855     13.526
    3.2979     15.049
    3.3103     16.728
    3.3227     18.575
    3.3351     20.607
    3.3475      22.84
    3.3599     25.291
    3.3723     27.979
    3.3847     30.925
    3.3971     34.152
    3.4095     37.681
    3.4219     41.541
    3.4343     45.757
    3.4467     50.359
    3.4591     55.378
    3.4715     60.849
    3.4839     66.808
    3.4963     73.292
    3.5087     80.345
    3.5211      88.01
    3.5335     96.334
    3.5459     105.37
    3.5583     115.17
    3.5707     125.78
    3.5831     137.29
    3.5955     149.74
    3.6079      163.2
    3.6203     177.76
    3.6327     193.49
    3.6451     210.47
    3.6574      228.8
    3.6698     248.56
    3.6822     269.86
    3.6946      292.8
     3.707      317.5
    3.7194     344.07
    3.7318     372.65
    3.7442     403.36
    3.7566     436.36
     3.769     471.78
    3.7814     509.79
    3.7938     550.55
    3.8062     594.24
    3.8186     641.05
     3.831     691.18
    3.8434     744.84
    3.8558     802.24
    3.8682     863.62
    3.8806     929.22
     3.893     999.29
    3.9054     1074.1
    3.9178       1154
    3.9302     1239.2
    3.9426       1330
     3.955     1426.8
    3.9674       1530
    3.9798     1639.9
    3.9922     1756.8
    4.0046     1881.2
     4.017     2013.5
    4.0294     2154.2
    4.0418     2303.7
    4.0542     2462.5
    4.0666     2631.2
     4.079     2810.2
    4.0914     3000.1
    4.1038     3201.5
    4.1162     3415.1
    4.1286     3641.4
     4.141     3881.1
    4.1534       4135
    4.1658     4403.8
    4.1782     4688.2
    4.1906     4989.2
     4.203     5307.3
    4.2154     5643.7
    4.2278     5999.2
    4.2402     6374.7
    4.2526     6771.2
     4.265     7189.9
    4.2774     7631.7
    4.2898     8097.7
    4.3022     8589.3
    4.3146     9107.5
    4.3269     9653.7
    4.3393      10229
    4.3517      10835
    4.3641      11474
    4.3765      12146
    4.3889      12853
    4.4013      13596
    4.4137      14379
    4.4261      15201
    4.4385      16066
    4.4509      16974
    4.4633      17928
    4.4757      18931
    4.4881      19983
    4.5005      21087
    4.5129      22246
    4.5253      23462
    4.5377      24737
    4.5501      26074
    4.5625      27475
    4.5749      28943
    4.5873      30481
    4.5997      32092
    4.6121      33779
    4.6245      35545
    4.6369      37394
    4.6493      39328
    4.6617      41351
    4.6741      43466
    4.6865      45679
    4.6989      47991
    4.7113      50407
    4.7237      52932
    4.7361      55570
    4.7485      58324
    4.7609      61200
    4.7733      64202
    4.7857      67334
    4.7981      70603
    4.8105      74013
    4.8229      77569
    4.8353      81277
    4.8477      85142
    4.8601      89171
    4.8725      93369
    4.8849      97743
    4.8973  1.023e+05
    4.9097 1.0704e+05
    4.9221 1.1198e+05
    4.9345 1.1712e+05
    4.9469 1.2248e+05
    4.9593 1.2804e+05
    4.9717 1.3384e+05
     4.984 1.3986e+05
    4.9964 1.4613e+05
    5.0088 1.5264e+05
    5.0212 1.5942e+05
    5.0336 1.6645e+05
     5.046 1.7377e+05
    5.0584 1.8137e+05
    5.0708 1.8926e+05
    5.0832 1.9746e+05
    5.0956 2.0597e+05
     5.108 2.1481e+05
    5.1204 2.2398e+05
    5.1328  2.335e+05
    5.1452 2.4338e+05
    5.1576 2.5363e+05
      5.17 2.6426e+05
    5.1824 2.7528e+05
    5.1948 2.8671e+05
    5.2072 2.9856e+05
    5.2196 3.1084e+05
     5.232 3.2358e+05
    5.2444 3.3676e+05
    5.2568 3.5044e+05
    5.2692 3.6459e+05
    5.2816 3.7925e+05
     5.294 3.9443e+05
    5.3064 4.1015e+05
    5.3188 4.2643e+05
    5.3312 4.4327e+05
    5.3436  4.607e+05
     5.356 4.7874e+05
    5.3684  4.974e+05
    5.3808  5.167e+05
    5.3932 5.3666e+05
    5.4056  5.573e+05
     5.418 5.7864e+05
    5.4304  6.007e+05
    5.4428 6.2351e+05
    5.4552 6.4708e+05
    5.4676 6.7143e+05
      5.48 6.9659e+05
    5.4924 7.2258e+05
    5.5048 7.4942e+05
    5.5172 7.7715e+05
    5.5296 8.0578e+05
     5.542 8.3533e+05
    5.5544 8.6584e+05
    5.5668 8.9733e+05
    5.5792 9.2984e+05
    5.5916 9.6337e+05
     5.604 9.9797e+05
    5.6164 1.0337e+06
    5.6288 1.0705e+06
    5.6412 1.1084e+06
    5.6535 1.1476e+06
    5.6659  1.188e+06
    5.6783 1.2296e+06
    5.6907 1.2725e+06
    5.7031 1.3167e+06
    5.7155 1.3623e+06
    5.7279 1.4092e+06
    5.7403 1.4576e+06
    5.7527 1.5074e+06
    5.7651 1.5587e+06
    5.7775 1.6116e+06
    5.7899  1.666e+06
    5.8023  1.722e+06
    5.8147 1.7797e+06
    5.8271 1.8391e+06
    5.8395 1.9002e+06
    5.8519 1.9631e+06
    5.8643 2.0279e+06
    5.8767 2.0945e+06
    5.8891  2.163e+06
    5.9015 2.2335e+06
    5.9139  2.306e+06
    5.9263 2.3805e+06
    5.9387 2.4572e+06
    5.9511  2.536e+06
    5.9635 2.6171e+06
    5.9759 2.7004e+06
    5.9883  2.786e+06
    6.0007 2.8741e+06
    6.0131 2.9645e+06
    6.0255 3.0575e+06
    6.0379 3.1529e+06
    6.0503  3.251e+06
    6.0627 3.3518e+06
    6.0751 3.4553e+06
    6.0875 3.5616e+06
    6.0999 3.6707e+06
    6.1123 3.7828e+06
    6.1247 3.8978e+06
    6.1371 4.0159e+06
    6.1495 4.1372e+06
    6.1619 4.2616e+06
    6.1743 4.3893e+06
    6.1867 4.5204e+06
    6.1991 4.6548e+06
    6.2115 4.7928e+06
    6.2239 4.9343e+06
    6.2363 5.0794e+06
    6.2487 5.2283e+06
    6.2611  5.381e+06
    6.2735 5.5376e+06
    6.2859 5.6981e+06
    6.2983 5.8627e+06
    6.3107 6.0315e+06
     6.323 6.2044e+06
    6.3354 6.3817e+06
    6.3478 6.5635e+06
    6.3602 6.7497e+06
    6.3726 6.9405e+06
     6.385  7.136e+06
    6.3974 7.3363e+06
    6.4098 7.5415e+06
    6.4222 7.7517e+06
    6.4346  7.967e+06
     6.447 8.1875e+06
    6.4594 8.4133e+06
    6.4718 8.6445e+06
    6.4842 8.8812e+06
    6.4966 9.1236e+06
     6.509 9.3718e+06
    6.5214 9.6257e+06
    6.5338 9.8857e+06
    6.5462 1.0152e+07
    6.5586 1.0424e+07
     6.571 1.0703e+07
    6.5834 1.0988e+07
    6.5958 1.1279e+07
    6.6082 1.1578e+07
    6.6206 1.1883e+07
     6.633 1.2195e+07
    6.6454 1.2515e+07
    6.6578 1.2841e+07
    6.6702 1.3175e+07
    6.6826 1.3517e+07
     6.695 1.3866e+07
    6.7074 1.4223e+07
    6.7198 1.4588e+07
    6.7322 1.4961e+07
    6.7446 1.5342e+07
     6.757 1.5732e+07
    6.7694 1.6131e+07
    6.7818 1.6538e+07
    6.7942 1.6954e+07
    6.8066 1.7379e+07
     6.819 1.7813e+07
    6.8314 1.8257e+07
    6.8438  1.871e+07
    6.8562 1.9173e+07
    6.8686 1.9646e+07
     6.881 2.0129e+07
    6.8934 2.0622e+07
    6.9058 2.1125e+07
    6.9182  2.164e+07
    6.9306 2.2165e+07
     6.943 2.2701e+07
    6.9554 2.3248e+07
    6.9678 2.3807e+07
    6.9801 2.4377e+07
    6.9925 2.4959e+07
    7.0049 2.5553e+07
    7.0173 2.6159e+07
    7.0297 2.6778e+07
    7.0421  2.741e+07
    7.0545 2.8054e+07
    7.0669 2.8711e+07
    7.0793 2.9381e+07
    7.0917 3.0065e+07
    7.1041 3.0763e+07
    7.1165 3.1475e+07
    7.1289 3.2201e+07
    7.1413 3.2941e+07
    7.1537 3.3696e+07
    7.1661 3.4466e+07
    7.1785 3.5251e+07
    7.1909 3.6051e+07
    7.2033 3.6867e+07
    7.2157 3.7699e+07
    7.2281 3.8547e+07
    7.2405 3.9411e+07
    7.2529 4.0292e+07
    7.2653  4.119e+07
    7.2777 4.2106e+07
    7.2901 4.3038e+07
    7.3025 4.3989e+07
    7.3149 4.4958e+07
    7.3273 4.5944e+07
    7.3397  4.695e+07
    7.3521 4.7974e+07
    7.3645 4.9018e+07
    7.3769 5.0081e+07
    7.3893 5.1164e+07
    7.4017 5.2267e+07
    7.4141  5.339e+07
    7.4265 5.4534e+07
    7.4389 5.5699e+07
    7.4513 5.6886e+07
    7.4637 5.8094e+07
    7.4761 5.9324e+07
    7.4885 6.0577e+07
    7.5009 6.1852e+07
    7.5133  6.315e+07
    7.5257 6.4472e+07
    7.5381 6.5817e+07
    7.5505 6.7186e+07
    7.5629  6.858e+07
    7.5753 6.9998e+07
    7.5877 7.1442e+07
    7.6001 7.2911e+07
    7.6125 7.4405e+07
    7.6249 7.5926e+07
    7.6373 7.7474e+07
    7.6496 7.9049e+07
     7.662 8.0651e+07
    7.6744 8.2281e+07
    7.6868 8.3939e+07
    7.6992 8.5625e+07
    7.7116 8.7341e+07
     7.724 8.9086e+07
    7.7364  9.086e+07
    7.7488 9.2665e+07
    7.7612 9.4501e+07
    7.7736 9.6367e+07
     7.786 9.8265e+07
    7.7984 1.0019e+08
    7.8108 1.0216e+08
    7.8232 1.0415e+08
    7.8356 1.0618e+08
     7.848 1.0824e+08
    7.8604 1.1034e+08
    7.8728 1.1247e+08
    7.8852 1.1463e+08
    7.8976 1.1684e+08
      7.91 1.1907e+08
    7.9224 1.2135e+08
    7.9348 1.2366e+08
    7.9472 1.2601e+08
    7.9596 1.2839e+08
     7.972 1.3082e+08
    7.9844 1.3328e+08
    7.9968 1.3578e+08
    8.0092 1.3833e+08
    8.0216 1.4091e+08
     8.034 1.4354e+08
    8.0464  1.462e+08
    8.0588 1.4891e+08
    8.0712 1.5166e+08
    8.0836 1.5446e+08
     8.096  1.573e+08
    8.1084 1.6018e+08
    8.1208 1.6311e+08
    8.1332 1.6608e+08
    8.1456  1.691e+08
     8.158 1.7216e+08
    8.1704 1.7528e+08
    8.1828 1.7844e+08
    8.1952 1.8164e+08
    8.2076  1.849e+08
      8.22 1.8821e+08
    8.2324 1.9157e+08
    8.2448 1.9498e+08
    8.2572 1.9844e+08
    8.2696 2.0195e+08
     8.282 2.0551e+08
    8.2944 2.0913e+08
    8.3067  2.128e+08
    8.3191 2.1653e+08
    8.3315 2.2031e+08
    8.3439 2.2415e+08
    8.3563 2.2804e+08
    8.3687   2.32e+08
    8.3811   2.36e+08
    8.3935 2.4007e+08
    8.4059  2.442e+08
    8.4183 2.4839e+08
    8.4307 2.5264e+08
    8.4431 2.5695e+08
    8.4555 2.6132e+08
    8.4679 2.6575e+08
    8.4803 2.7025e+08
    8.4927 2.7482e+08
    8.5051 2.7944e+08
    8.5175 2.8414e+08
    8.5299  2.889e+08
    8.5423 2.9373e+08
    8.5547 2.9862e+08
    8.5671 3.0359e+08
    8.5795 3.0862e+08
    8.5919 3.1373e+08
    8.6043 3.1891e+08
    8.6167 3.2415e+08
    8.6291 3.2947e+08
    8.6415 3.3487e+08
    8.6539 3.4034e+08
    8.6663 3.4588e+08
    8.6787  3.515e+08
    8.6911  3.572e+08
    8.7035 3.6298e+08
    8.7159 3.6883e+08
    8.7283 3.7477e+08
    8.7407 3.8078e+08
    8.7531 3.8688e+08
    8.7655 3.9306e+08
    8.7779 3.9932e+08
    8.7903 4.0566e+08
    8.8027 4.1209e+08
    8.8151 4.1861e+08
    8.8275 4.2521e+08
    8.8399  4.319e+08
    8.8523 4.3868e+08
    8.8647 4.4555e+08
    8.8771  4.525e+08
    8.8895 4.5955e+08
    8.9019 4.6669e+08
    8.9143 4.7393e+08
    8.9267 4.8126e+08
    8.9391 4.8868e+08
    8.9515  4.962e+08
    8.9639 5.0382e+08
    8.9762 5.1154e+08
    8.9886 5.1935e+08
     9.001 5.2727e+08
    9.0134 5.3528e+08
    9.0258  5.434e+08
    9.0382 5.5162e+08
    9.0506 5.5995e+08
     9.063 5.6838e+08
    9.0754 5.7692e+08
    9.0878 5.8556e+08
    9.1002 5.9432e+08
    9.1126 6.0318e+08
     9.125 6.1216e+08
    9.1374 6.2124e+08
    9.1498 6.3044e+08
    9.1622 6.3976e+08
    9.1746 6.4919e+08
     9.187 6.5873e+08
    9.1994 6.6839e+08
    9.2118 6.7817e+08
    9.2242 6.8807e+08
    9.2366 6.9809e+08
     9.249 7.0824e+08
    9.2614  7.185e+08
    9.2738 7.2889e+08
    9.2862 7.3941e+08
    9.2986 7.5005e+08
     9.311 7.6082e+08
    9.3234 7.7173e+08
    9.3358 7.8276e+08
    9.3482 7.9392e+08
    9.3606 8.0521e+08
     9.373 8.1664e+08
    9.3854 8.2821e+08
    9.3978 8.3991e+08
    9.4102 8.5175e+08
    9.4226 8.6373e+08
     9.435 8.7584e+08
    9.4474 8.8811e+08
    9.4598 9.0051e+08
    9.4722 9.1305e+08
    9.4846 9.2575e+08
     9.497 9.3859e+08
    9.5094 9.5158e+08
    9.5218 9.6472e+08
    9.5342 9.7801e+08
    9.5466 9.9145e+08
     9.559  1.005e+09
    9.5714 1.0188e+09
    9.5838 1.0327e+09
    9.5962 1.0468e+09
    9.6086  1.061e+09
     9.621 1.0754e+09
    9.6333 1.0899e+09
    9.6457 1.1046e+09
    9.6581 1.1195e+09
    9.6705 1.1346e+09
    9.6829 1.1498e+09
    9.6953 1.1652e+09
    9.7077 1.1807e+09
    9.7201 1.1964e+09
    9.7325 1.2123e+09
    9.7449 1.2284e+09
    9.7573 1.2446e+09
    9.7697 1.2611e+09
    9.7821 1.2777e+09
    9.7945 1.2945e+09
    9.8069 1.3114e+09
    9.8193 1.3286e+09
    9.8317 1.3459e+09
    9.8441 1.3635e+09
    9.8565 1.3812e+09
    9.8689 1.3991e+09
    9.8813 1.4172e+09
    9.8937 1.4355e+09
    9.9061  1.454e+09
    9.9185 1.4727e+09
    9.9309 1.4916e+09
    9.9433 1.5107e+09
    9.9557   1.53e+09
    9.9681 1.5495e+09
    9.9805 1.5692e+09
    9.9929 1.5891e+09
    10.005 1.6092e+09
    10.018 1.6295e+09
     10.03 1.6501e+09
    10.042 1.6708e+09
    10.055 1.6918e+09
    10.067  1.713e+09
     10.08 1.7344e+09
    10.092  1.756e+09
    10.104 1.7779e+09
    10.117 1.7999e+09
    10.129 1.8222e+09
    10.142 1.8448e+09
    10.154 1.8675e+09
    10.166 1.8905e+09
    10.179 1.9137e+09
    10.191 1.9372e+09
    10.204 1.9609e+09
    10.216 1.9848e+09
    10.228  2.009e+09
    10.241 2.0334e+09
    10.253 2.0581e+09
    10.266  2.083e+09
    10.278 2.1081e+09
     10.29 2.1335e+09
    10.303 2.1592e+09
    10.315 2.1851e+09
    10.328 2.2113e+09
     10.34 2.2377e+09
    10.352 2.2644e+09
    10.365 2.2914e+09
    10.377 2.3186e+09
     10.39 2.3461e+09
    10.402 2.3738e+09
    10.414 2.4018e+09
    10.427 2.4301e+09
    10.439 2.4587e+09
    10.452 2.4875e+09
    10.464 2.5166e+09
    10.476  2.546e+09
    10.489 2.5757e+09
    10.501 2.6056e+09
    10.514 2.6359e+09
    10.526 2.6664e+09
    10.538 2.6973e+09
    10.551 2.7284e+09
    10.563 2.7598e+09
    10.576 2.7915e+09
    10.588 2.8235e+09
      10.6 2.8558e+09
    10.613 2.8884e+09
    10.625 2.9214e+09
    10.638 2.9546e+09
     10.65 2.9881e+09
    10.662  3.022e+09
    10.675 3.0561e+09
    10.687 3.0906e+09
      10.7 3.1254e+09
    10.712 3.1605e+09
    10.724  3.196e+09
    10.737 3.2317e+09
    10.749 3.2678e+09
    10.762 3.3042e+09
    10.774  3.341e+09
    10.786 3.3781e+09
    10.799 3.4155e+09
    10.811 3.4533e+09
    10.824 3.4914e+09
    10.836 3.5298e+09
    10.848 3.5686e+09
    10.861 3.6077e+09
    10.873 3.6472e+09
    10.886 3.6871e+09
    10.898 3.7273e+09
     10.91 3.7678e+09
    10.923 3.8087e+09
    10.935   3.85e+09
    10.948 3.8917e+09
     10.96 3.9337e+09
    10.972  3.976e+09
    10.985 4.0188e+09
    10.997 4.0619e+09
     11.01 4.1055e+09
    11.022 4.1493e+09
    11.034 4.1936e+09
    11.047 4.2382e+09
    11.059 4.2833e+09
    11.072 4.3287e+09
    11.084 4.3745e+09
    11.096 4.4207e+09
    11.109 4.4673e+09
    11.121 4.5144e+09
    11.134 4.5618e+09
    11.146 4.6096e+09
    11.158 4.6578e+09
    11.171 4.7065e+09
    11.183 4.7555e+09
    11.196  4.805e+09
    11.208 4.8549e+09
     11.22 4.9052e+09
    11.233 4.9559e+09
    11.245  5.007e+09
    11.258 5.0586e+09
     11.27 5.1106e+09
    11.282 5.1631e+09
    11.295  5.216e+09
    11.307 5.2693e+09
    11.319 5.3231e+09
    11.332 5.3773e+09
    11.344 5.4319e+09
    11.357  5.487e+09
    11.369 5.5426e+09
    11.381 5.5986e+09
    11.394 5.6551e+09
    11.406  5.712e+09
    11.419 5.7694e+09
    11.431 5.8273e+09
    11.443 5.8856e+09
    11.456 5.9444e+09
    11.468 6.0037e+09
    11.481 6.0635e+09
    11.493 6.1237e+09
    11.505 6.1845e+09
    11.518 6.2457e+09
     11.53 6.3074e+09
    11.543 6.3696e+09
    11.555 6.4323e+09
    11.567 6.4955e+09
     11.58 6.5592e+09
    11.592 6.6234e+09
    11.605 6.6881e+09
    11.617 6.7533e+09
    11.629  6.819e+09
    11.642 6.8853e+09
    11.654  6.952e+09
    11.667 7.0193e+09
    11.679 7.0872e+09
    11.691 7.1555e+09
    11.704 7.2244e+09
    11.716 7.2938e+09
    11.729 7.3637e+09
    11.741 7.4342e+09
    11.753 7.5052e+09
    11.766 7.5768e+09
    11.778  7.649e+09
    11.791 7.7216e+09
    11.803 7.7949e+09
    11.815 7.8687e+09
    11.828  7.943e+09
     11.84 8.0179e+09
    11.853 8.0935e+09
    11.865 8.1695e+09
    11.877 8.2461e+09
     11.89 8.3234e+09
    11.902 8.4011e+09
    11.915 8.4796e+09
    11.927 8.5585e+09
    11.939 8.6381e+09
    11.952 8.7182e+09
    11.964  8.799e+09
    11.977 8.8803e+09
    11.989 8.9623e+09
    12.001 9.0449e+09
    12.014  9.128e+09
    12.026 9.2118e+09
    12.039 9.2962e+09
    12.051 9.3813e+09
    12.063 9.4669e+09
    12.076 9.5532e+09
    12.088 9.6401e+09
    12.101 9.7276e+09
    12.113 9.8159e+09
    12.125 9.9046e+09
    12.138 9.9941e+09
     12.15 1.0084e+10
    12.163 1.0175e+10
    12.175 1.0266e+10
    12.187 1.0359e+10
      12.2 1.0451e+10
    12.212 1.0545e+10
    12.225 1.0639e+10
    12.237 1.0733e+10
    12.249 1.0829e+10
    12.262 1.0925e+10
    12.274 1.1022e+10
    12.287 1.1119e+10
    12.299 1.1217e+10
    12.311 1.1316e+10
    12.324 1.1416e+10
    12.336 1.1516e+10
    12.349 1.1617e+10
    12.361 1.1719e+10
    12.373 1.1821e+10
    12.386 1.1924e+10
    12.398 1.2028e+10
    12.411 1.2132e+10
    12.423 1.2237e+10
    12.435 1.2343e+10
    12.448  1.245e+10
     12.46 1.2558e+10
    12.473 1.2666e+10
    12.485 1.2775e+10
    12.497 1.2884e+10
     12.51 1.2995e+10
    12.522 1.3106e+10
    12.535 1.3218e+10
    12.547  1.333e+10
    12.559 1.3444e+10
    12.572 1.3558e+10
    12.584 1.3673e+10
    12.597 1.3789e+10
    12.609 1.3905e+10
    12.621 1.4023e+10
    12.634 1.4141e+10
    12.646  1.426e+10
    12.658 1.4379e+10
    12.671   1.45e+10
    12.683 1.4621e+10
    12.696 1.4743e+10
    12.708 1.4866e+10
     12.72  1.499e+10
    12.733 1.5114e+10
    12.745  1.524e+10
    12.758 1.5366e+10
     12.77 1.5493e+10
    12.782 1.5621e+10
    12.795 1.5749e+10
    12.807 1.5879e+10
     12.82 1.6009e+10
    12.832  1.614e+10
    12.844 1.6273e+10
    12.857 1.6406e+10
    12.869 1.6539e+10
    12.882 1.6674e+10
    12.894 1.6809e+10
    12.906 1.6946e+10
    12.919 1.7083e+10
    12.931 1.7221e+10
    12.944  1.736e+10
    12.956   1.75e+10
    12.968 1.7641e+10
    12.981 1.7783e+10
    12.993 1.7925e+10
    13.006 1.8069e+10
    13.018 1.8213e+10
     13.03 1.8359e+10
    13.043 1.8505e+10
    13.055 1.8652e+10
    13.068   1.88e+10
     13.08 1.8949e+10
    13.092 1.9099e+10
    13.105  1.925e+10
    13.117 1.9402e+10
     13.13 1.9555e+10
    13.142 1.9708e+10
    13.154 1.9863e+10
    13.167 2.0019e+10
    13.179 2.0175e+10
    13.192 2.0333e+10
    13.204 2.0491e+10
    13.216 2.0651e+10
    13.229 2.0811e+10
    13.241 2.0973e+10
    13.254 2.1135e+10
    13.266 2.1299e+10
    13.278 2.1463e+10
    13.291 2.1628e+10
    13.303 2.1795e+10
    13.316 2.1962e+10
    13.328 2.2131e+10
     13.34   2.23e+10
    13.353 2.2471e+10
    13.365 2.2642e+10
    13.378 2.2815e+10
     13.39 2.2989e+10
    13.402 2.3163e+10
    13.415 2.3339e+10
    13.427 2.3516e+10
     13.44 2.3693e+10
    13.452 2.3872e+10
    13.464 2.4052e+10
    13.477 2.4233e+10
    13.489 2.4415e+10
    13.502 2.4598e+10
    13.514 2.4782e+10
    13.526 2.4967e+10
    13.539 2.5154e+10
    13.551 2.5341e+10
    13.564  2.553e+10
    13.576 2.5719e+10
    13.588  2.591e+10
    13.601 2.6102e+10
    13.613 2.6295e+10
    13.626 2.6489e+10
    13.638 2.6684e+10
     13.65  2.688e+10
    13.663 2.7078e+10
    13.675 2.7276e+10
    13.688 2.7476e+10
      13.7 2.7677e+10
    13.712 2.7879e+10
    13.725 2.8082e+10
    13.737 2.8286e+10
     13.75 2.8492e+10
    13.762 2.8699e+10
    13.774 2.8906e+10
    13.787 2.9115e+10
    13.799 2.9325e+10
    13.812 2.9537e+10
    13.824  2.975e+10
    13.836 2.9963e+10
    13.849 3.0178e+10
    13.861 3.0394e+10
    13.874 3.0612e+10
    13.886  3.083e+10
    13.898  3.105e+10
    13.911 3.1271e+10
    13.923 3.1493e+10
    13.936 3.1717e+10
    13.948 3.1941e+10
     13.96 3.2167e+10
    13.973 3.2394e+10
    13.985 3.2623e+10
    13.997 3.2852e+10
     14.01 3.3083e+10
    14.022 3.3315e+10
    14.035 3.3549e+10
    14.047 3.3784e+10
    14.059  3.402e+10
    14.072 3.4257e+10
    14.084 3.4496e+10
    14.097 3.4735e+10
    14.109 3.4977e+10
    14.121 3.5219e+10
    14.134 3.5463e+10
    14.146 3.5708e+10
    14.159 3.5954e+10
    14.171 3.6202e+10
    14.183 3.6451e+10
    14.196 3.6702e+10
    14.208 3.6953e+10
    14.221 3.7206e+10
    14.233 3.7461e+10
    14.245 3.7716e+10
    14.258 3.7974e+10
     14.27 3.8232e+10
    14.283 3.8492e+10
    14.295 3.8753e+10
    14.307 3.9016e+10
     14.32  3.928e+10
    14.332 3.9545e+10
    14.345 3.9812e+10
    14.357  4.008e+10
    14.369 4.0349e+10
    14.382  4.062e+10
    14.394 4.0892e+10
    14.407 4.1166e+10
    14.419 4.1441e+10
    14.431 4.1718e+10
    14.444 4.1996e+10
    14.456 4.2275e+10
    14.469 4.2556e+10
    14.481 4.2838e+10
    14.493 4.3122e+10
    14.506 4.3408e+10
    14.518 4.3694e+10
    14.531 4.3982e+10
    14.543 4.4272e+10
    14.555 4.4563e+10
    14.568 4.4855e+10
     14.58 4.5149e+10
    14.593 4.5445e+10
    14.605 4.5742e+10
    14.617 4.6041e+10
     14.63  4.634e+10
    14.642 4.6642e+10
    14.655 4.6945e+10
    14.667 4.7249e+10
    14.679 4.7556e+10
    14.692 4.7863e+10
    14.704 4.8172e+10
    14.717 4.8483e+10
    14.729 4.8795e+10
    14.741 4.9109e+10
    14.754 4.9424e+10
    14.766 4.9741e+10
    14.779  5.006e+10
    14.791 5.0379e+10
    14.803 5.0701e+10
    14.816 5.1024e+10
    14.828 5.1349e+10
    14.841 5.1675e+10
    14.853 5.2003e+10
    14.865 5.2333e+10
    14.878 5.2664e+10
     14.89 5.2996e+10
    14.903 5.3331e+10
    14.915 5.3667e+10
    14.927 5.4004e+10
     14.94 5.4343e+10
    14.952 5.4684e+10
    14.965 5.5027e+10
    14.977 5.5371e+10
    14.989 5.5716e+10
    15.002 5.6064e+10
    15.014 5.6413e+10
    15.027 5.6764e+10
    15.039 5.7116e+10
    15.051  5.747e+10
    15.064 5.7826e+10
    15.076 5.8183e+10
    15.089 5.8542e+10
    15.101 5.8903e+10
    15.113 5.9266e+10
    15.126  5.963e+10
    15.138 5.9996e+10
    15.151 6.0364e+10
    15.163 6.0733e+10
    15.175 6.1104e+10
    15.188 6.1477e+10
      15.2 6.1852e+10
    15.213 6.2228e+10
    15.225 6.2606e+10
    15.237 6.2986e+10
     15.25 6.3368e+10
    15.262 6.3751e+10
    15.275 6.4136e+10
    15.287 6.4523e+10
    15.299 6.4912e+10
    15.312 6.5302e+10
    15.324 6.5695e+10
    15.336 6.6089e+10
    15.349 6.6485e+10
    15.361 6.6882e+10
    15.374 6.7282e+10
    15.386 6.7683e+10
    15.398 6.8086e+10
    15.411 6.8491e+10
    15.423 6.8898e+10
    15.436 6.9306e+10
    15.448 6.9717e+10
     15.46 7.0129e+10
    15.473 7.0544e+10
    15.485  7.096e+10
    15.498 7.1378e+10
     15.51 7.1797e+10
    15.522 7.2219e+10
    15.535 7.2642e+10
    15.547 7.3068e+10
     15.56 7.3496e+10
    15.572 7.3924e+10
    15.584 7.4356e+10
    15.597 7.4789e+10
    15.609 7.5223e+10
    15.622 7.5661e+10
    15.634 7.6099e+10
    15.646  7.654e+10
    15.659 7.6983e+10
    15.671 7.7427e+10
    15.684 7.7874e+10
    15.696 7.8322e+10
    15.708 7.8773e+10
    15.721 7.9225e+10
    15.733  7.968e+10
    15.746 8.0136e+10
    15.758 8.0594e+10
     15.77 8.1055e+10
    15.783 8.1517e+10
    15.795 8.1981e+10
    15.808 8.2448e+10
     15.82 8.2916e+10
    15.832 8.3387e+10
    15.845 8.3859e+10
    15.857 8.4333e+10
     15.87  8.481e+10
    15.882 8.5288e+10
    15.894 8.5768e+10
    15.907 8.6251e+10
    15.919 8.6736e+10
    15.932 8.7222e+10
    15.944 8.7711e+10
    15.956 8.8202e+10
    15.969 8.8694e+10
    15.981 8.9189e+10
    15.994 8.9687e+10
    16.006 9.0186e+10
    16.018 9.0687e+10
    16.031  9.119e+10
    16.043 9.1695e+10
    16.056 9.2203e+10
    16.068 9.2712e+10
     16.08 9.3224e+10
    16.093 9.3738e+10
    16.105 9.4254e+10
    16.118 9.4772e+10
     16.13 9.5292e+10
    16.142 9.5815e+10
    16.155 9.6339e+10
    16.167 9.6866e+10
     16.18 9.7395e+10
    16.192 9.7926e+10
    16.204  9.846e+10
    16.217 9.8995e+10
    16.229 9.9533e+10
    16.242 1.0007e+11
    16.254 1.0061e+11
    16.266 1.0116e+11
    16.279 1.0171e+11
    16.291 1.0225e+11
    16.304  1.028e+11
    16.316 1.0336e+11
    16.328 1.0391e+11
    16.341 1.0447e+11
    16.353 1.0503e+11
    16.366 1.0559e+11
    16.378 1.0616e+11
     16.39 1.0672e+11
    16.403 1.0729e+11
    16.415 1.0786e+11
    16.428 1.0844e+11
     16.44 1.0901e+11
    16.452 1.0959e+11
    16.465 1.1017e+11
    16.477 1.1075e+11
     16.49 1.1134e+11
    16.502 1.1193e+11
    16.514 1.1251e+11
    16.527 1.1311e+11
    16.539  1.137e+11
    16.552  1.143e+11
    16.564  1.149e+11
    16.576  1.155e+11
    16.589  1.161e+11
    16.601 1.1671e+11
    16.613 1.1732e+11
    16.626 1.1793e+11
    16.638 1.1854e+11
    16.651 1.1915e+11
    16.663 1.1977e+11
    16.675 1.2039e+11
    16.688 1.2101e+11
      16.7 1.2164e+11
    16.713 1.2227e+11
    16.725  1.229e+11
    16.737 1.2353e+11
     16.75 1.2416e+11
    16.762  1.248e+11
    16.775 1.2544e+11
    16.787 1.2608e+11
    16.799 1.2673e+11
    16.812 1.2737e+11
    16.824 1.2802e+11
    16.837 1.2867e+11
    16.849 1.2933e+11
    16.861 1.2999e+11
    16.874 1.3064e+11
    16.886 1.3131e+11
    16.899 1.3197e+11
    16.911 1.3264e+11
    16.923 1.3331e+11
    16.936 1.3398e+11
    16.948 1.3465e+11
    16.961 1.3533e+11
    16.973 1.3601e+11
    16.985 1.3669e+11
    16.998 1.3737e+11
     17.01 1.3806e+11
    17.023 1.3875e+11
    17.035 1.3944e+11
    17.047 1.4014e+11
     17.06 1.4083e+11
    17.072 1.4153e+11
    17.085 1.4224e+11
    17.097 1.4294e+11
    17.109 1.4365e+11
    17.122 1.4436e+11
    17.134 1.4507e+11
    17.147 1.4578e+11
    17.159  1.465e+11
    17.171 1.4722e+11
    17.184 1.4795e+11
    17.196 1.4867e+11
    17.209  1.494e+11
    17.221 1.5013e+11
    17.233 1.5086e+11
    17.246  1.516e+11
    17.258 1.5234e+11
    17.271 1.5308e+11
    17.283 1.5382e+11
    17.295 1.5457e+11
    17.308 1.5532e+11
     17.32 1.5607e+11
    17.333 1.5683e+11
    17.345 1.5759e+11
    17.357 1.5835e+11
     17.37 1.5911e+11
    17.382 1.5988e+11
    17.395 1.6064e+11
    17.407 1.6141e+11
    17.419 1.6219e+11
    17.432 1.6296e+11
    17.444 1.6374e+11
    17.457 1.6453e+11
    17.469 1.6531e+11
    17.481  1.661e+11
    17.494 1.6689e+11
    17.506 1.6768e+11
    17.519 1.6848e+11
    17.531 1.6928e+11
    17.543 1.7008e+11
    17.556 1.7088e+11
    17.568 1.7169e+11
    17.581  1.725e+11
    17.593 1.7331e+11
    17.605 1.7413e+11
    17.618 1.7495e+11
     17.63 1.7577e+11
    17.643 1.7659e+11
    17.655 1.7742e+11
    17.667 1.7825e+11
     17.68 1.7908e+11
    17.692 1.7992e+11
    17.705 1.8075e+11
    17.717  1.816e+11
    17.729 1.8244e+11
    17.742 1.8329e+11
    17.754 1.8414e+11
    17.767 1.8499e+11
    17.779 1.8584e+11
    17.791  1.867e+11
    17.804 1.8756e+11
    17.816 1.8843e+11
    17.829  1.893e+11
    17.841 1.9017e+11
    17.853 1.9104e+11
    17.866 1.9191e+11
    17.878 1.9279e+11
    17.891 1.9367e+11
    17.903 1.9456e+11
    17.915 1.9545e+11
    17.928 1.9634e+11
     17.94 1.9723e+11
    17.952 1.9813e+11
    17.965 1.9903e+11
    17.977 1.9993e+11
     17.99 2.0084e+11
    18.002 2.0174e+11
    18.014 2.0266e+11
    18.027 2.0357e+11
    18.039 2.0449e+11
    18.052 2.0541e+11
    18.064 2.0633e+11
    18.076 2.0726e+11
    18.089 2.0819e+11
    18.101 2.0912e+11
    18.114 2.1006e+11
    18.126 2.1099e+11
    18.138 2.1194e+11
    18.151 2.1288e+11
    18.163 2.1383e+11
    18.176 2.1478e+11
    18.188 2.1574e+11
      18.2 2.1669e+11
    18.213 2.1765e+11
    18.225 2.1862e+11
    18.238 2.1958e+11
     18.25 2.2055e+11
    18.262 2.2153e+11
    18.275  2.225e+11
    18.287 2.2348e+11
      18.3 2.2446e+11
    18.312 2.2545e+11
    18.324 2.2644e+11
    18.337 2.2743e+11
    18.349 2.2842e+11
    18.362 2.2942e+11
    18.374 2.3042e+11
    18.386 2.3143e+11
    18.399 2.3243e+11
    18.411 2.3344e+11
    18.424 2.3446e+11
    18.436 2.3547e+11
    18.448 2.3649e+11
    18.461 2.3752e+11
    18.473 2.3854e+11
    18.486 2.3957e+11
    18.498 2.4061e+11
     18.51 2.4164e+11
    18.523 2.4268e+11
    18.535 2.4373e+11
    18.548 2.4477e+11
     18.56 2.4582e+11
    18.572 2.4687e+11
    18.585 2.4793e+11
    18.597 2.4899e+11
     18.61 2.5005e+11
    18.622 2.5111e+11
    18.634 2.5218e+11
    18.647 2.5326e+11
    18.659 2.5433e+11
    18.672 2.5541e+11
    18.684 2.5649e+11
    18.696 2.5758e+11
    18.709 2.5867e+11
    18.721 2.5976e+11
    18.734 2.6085e+11
    18.746 2.6195e+11
    18.758 2.6305e+11
    18.771 2.6416e+11
    18.783 2.6527e+11
    18.796 2.6638e+11
    18.808 2.6749e+11
     18.82 2.6861e+11
    18.833 2.6973e+11
    18.845 2.7086e+11
    18.858 2.7199e+11
     18.87 2.7312e+11
    18.882 2.7426e+11
    18.895 2.7539e+11
    18.907 2.7654e+11
     18.92 2.7768e+11
    18.932 2.7883e+11
    18.944 2.7999e+11
    18.957 2.8114e+11
    18.969  2.823e+11
    18.982 2.8346e+11
    18.994 2.8463e+11
    19.006  2.858e+11
    19.019 2.8697e+11
    19.031 2.8815e+11
    19.044 2.8933e+11
    19.056 2.9051e+11
    19.068  2.917e+11
    19.081 2.9289e+11
    19.093 2.9408e+11
    19.106 2.9528e+11
    19.118 2.9648e+11
     19.13 2.9769e+11
    19.143 2.9889e+11
    19.155 3.0011e+11
    19.168 3.0132e+11
     19.18 3.0254e+11
    19.192 3.0376e+11
    19.205 3.0499e+11
    19.217 3.0622e+11
     19.23 3.0745e+11
    19.242 3.0869e+11
    19.254 3.0993e+11
    19.267 3.1117e+11
    19.279 3.1242e+11
    19.291 3.1367e+11
    19.304 3.1492e+11
    19.316 3.1618e+11
    19.329 3.1744e+11
    19.341  3.187e+11
    19.353 3.1997e+11
    19.366 3.2124e+11
    19.378 3.2252e+11
    19.391  3.238e+11
    19.403 3.2508e+11
    19.415 3.2637e+11
    19.428 3.2766e+11
     19.44 3.2895e+11
    19.453 3.3025e+11
    19.465 3.3155e+11
    19.477 3.3286e+11
     19.49 3.3416e+11
    19.502 3.3548e+11
    19.515 3.3679e+11
    19.527 3.3811e+11
    19.539 3.3943e+11
    19.552 3.4076e+11
    19.564 3.4209e+11
    19.577 3.4342e+11
    19.589 3.4476e+11
    19.601  3.461e+11
    19.614 3.4745e+11
    19.626  3.488e+11
    19.639 3.5015e+11
    19.651 3.5151e+11
    19.663 3.5287e+11
    19.676 3.5423e+11
    19.688  3.556e+11
    19.701 3.5697e+11
    19.713 3.5835e+11
    19.725 3.5973e+11
    19.738 3.6111e+11
     19.75 3.6249e+11
    19.763 3.6388e+11
    19.775 3.6528e+11
    19.787 3.6668e+11
      19.8 3.6808e+11
    19.812 3.6948e+11
    19.825 3.7089e+11
    19.837  3.723e+11
    19.849 3.7372e+11
    19.862 3.7514e+11
    19.874 3.7657e+11
    19.887 3.7799e+11
    19.899 3.7943e+11
    19.911 3.8086e+11
    19.924  3.823e+11
    19.936 3.8375e+11
    19.949 3.8519e+11
    19.961 3.8664e+11
    19.973  3.881e+11
    19.986 3.8956e+11
    19.998 3.9102e+11
    20.011 3.9249e+11
    20.023 3.9396e+11
    20.035 3.9543e+11
    20.048 3.9691e+11
     20.06 3.9839e+11
    20.073 3.9988e+11
    20.085 4.0137e+11
    20.097 4.0286e+11
     20.11 4.0436e+11
    20.122 4.0586e+11
    20.135 4.0737e+11
    20.147 4.0888e+11
    20.159 4.1039e+11
    20.172 4.1191e+11
    20.184 4.1343e+11
    20.197 4.1496e+11
    20.209 4.1649e+11
    20.221 4.1802e+11
    20.234 4.1956e+11
    20.246  4.211e+11
    20.259 4.2264e+11
    20.271 4.2419e+11
    20.283 4.2575e+11
    20.296 4.2731e+11
    20.308 4.2887e+11
    20.321 4.3043e+11
    20.333   4.32e+11
    20.345 4.3357e+11
    20.358 4.3515e+11
     20.37 4.3673e+11
    20.383 4.3832e+11
    20.395 4.3991e+11
    20.407  4.415e+11
     20.42  4.431e+11
    20.432  4.447e+11
    20.445 4.4631e+11
    20.457 4.4792e+11
    20.469 4.4953e+11
    20.482 4.5115e+11
    20.494 4.5277e+11
    20.507  4.544e+11
    20.519 4.5603e+11
    20.531 4.5766e+11
    20.544  4.593e+11
    20.556 4.6094e+11
    20.569 4.6259e+11
    20.581 4.6424e+11
    20.593  4.659e+11
    20.606 4.6755e+11
    20.618 4.6921e+11
     20.63 4.7088e+11
    20.643 4.7255e+11
    20.655 4.7423e+11
    20.668 4.7591e+11
     20.68 4.7759e+11
    20.692 4.7928e+11
    20.705 4.8097e+11
    20.717 4.8267e+11
     20.73 4.8437e+11
    20.742 4.8607e+11
    20.754 4.8778e+11
    20.767  4.895e+11
    20.779 4.9121e+11
    20.792 4.9294e+11
    20.804 4.9466e+11
    20.816 4.9639e+11
    20.829 4.9812e+11
    20.841 4.9986e+11
    20.854  5.016e+11
    20.866 5.0335e+11
    20.878  5.051e+11
    20.891 5.0686e+11
    20.903 5.0862e+11
    20.916 5.1038e+11
    20.928 5.1215e+11
     20.94 5.1392e+11
    20.953  5.157e+11
    20.965 5.1748e+11
    20.978 5.1926e+11
     20.99 5.2105e+11
    21.002 5.2284e+11
    21.015 5.2464e+11
    21.027 5.2644e+11
     21.04 5.2825e+11
    21.052 5.3006e+11
    21.064 5.3188e+11
    21.077 5.3369e+11
    21.089 5.3552e+11
    21.102 5.3735e+11
    21.114 5.3918e+11
    21.126 5.4102e+11
    21.139 5.4286e+11
    21.151  5.447e+11
    21.164 5.4655e+11
    21.176 5.4841e+11
    21.188 5.5026e+11
    21.201 5.5212e+11
    21.213 5.5399e+11
    21.226 5.5586e+11
    21.238 5.5774e+11
     21.25 5.5962e+11
    21.263  5.615e+11
    21.275 5.6339e+11
    21.288 5.6529e+11
      21.3 5.6718e+11
    21.312 5.6908e+11
    21.325 5.7099e+11
    21.337  5.729e+11
     21.35 5.7482e+11
    21.362 5.7673e+11
    21.374 5.7866e+11
    21.387 5.8059e+11
    21.399 5.8252e+11
    21.412 5.8446e+11
    21.424  5.864e+11
    21.436 5.8835e+11
    21.449  5.903e+11
    21.461 5.9225e+11
    21.474 5.9421e+11
    21.486 5.9618e+11
    21.498 5.9814e+11
    21.511 6.0012e+11
    21.523 6.0209e+11
    21.536 6.0407e+11
    21.548 6.0606e+11
     21.56 6.0805e+11
    21.573 6.1005e+11
    21.585 6.1205e+11
    21.598 6.1405e+11
     21.61 6.1606e+11
    21.622 6.1807e+11
    21.635 6.2009e+11
    21.647 6.2212e+11
     21.66 6.2414e+11
    21.672 6.2617e+11
    21.684 6.2821e+11
    21.697 6.3025e+11
    21.709  6.323e+11
    21.722 6.3435e+11
    21.734  6.364e+11
    21.746 6.3846e+11
    21.759 6.4052e+11
    21.771 6.4259e+11
    21.784 6.4466e+11
    21.796 6.4674e+11
    21.808 6.4882e+11
    21.821 6.5091e+11
    21.833   6.53e+11
    21.846 6.5509e+11
    21.858 6.5719e+11
     21.87  6.593e+11
    21.883 6.6141e+11
    21.895 6.6352e+11
    21.908 6.6564e+11
     21.92 6.6776e+11
    21.932 6.6989e+11
    21.945 6.7202e+11
    21.957 6.7416e+11
    21.969  6.763e+11
    21.982 6.7845e+11
    21.994  6.806e+11
    22.007 6.8275e+11
    22.019 6.8491e+11
    22.031 6.8708e+11
    22.044 6.8925e+11
    22.056 6.9142e+11
    22.069  6.936e+11
    22.081 6.9578e+11
    22.093 6.9797e+11
    22.106 7.0017e+11
    22.118 7.0236e+11
    22.131 7.0456e+11
    22.143 7.0677e+11
    22.155 7.0898e+11
    22.168  7.112e+11
     22.18 7.1342e+11
    22.193 7.1564e+11
    22.205 7.1787e+11
    22.217 7.2011e+11
     22.23 7.2235e+11
    22.242 7.2459e+11
    22.255 7.2685e+11
    22.267  7.291e+11
    22.279 7.3136e+11
    22.292 7.3362e+11
    22.304 7.3589e+11
    22.317 7.3816e+11
    22.329 7.4044e+11
    22.341 7.4272e+11
    22.354 7.4501e+11
    22.366  7.473e+11
    22.379  7.496e+11
    22.391  7.519e+11
    22.403 7.5421e+11
    22.416 7.5652e+11
    22.428 7.5884e+11
    22.441 7.6116e+11
    22.453 7.6349e+11
    22.465 7.6581e+11
    22.478 7.6815e+11
     22.49 7.7049e+11
    22.503 7.7283e+11
    22.515 7.7518e+11
    22.527 7.7754e+11
     22.54  7.799e+11
    22.552 7.8226e+11
    22.565 7.8463e+11
    22.577   7.87e+11
    22.589 7.8938e+11
    22.602 7.9177e+11
    22.614 7.9415e+11
    22.627 7.9655e+11
    22.639 7.9895e+11
    22.651 8.0135e+11
    22.664 8.0376e+11
    22.676 8.0617e+11
    22.689 8.0859e+11
    22.701 8.1101e+11
    22.713 8.1344e+11
    22.726 8.1587e+11
    22.738 8.1831e+11
    22.751 8.2075e+11
    22.763  8.232e+11
    22.775 8.2565e+11
    22.788  8.281e+11
      22.8 8.3057e+11
    22.813 8.3304e+11
    22.825 8.3551e+11
    22.837 8.3798e+11
     22.85 8.4047e+11
    22.862 8.4295e+11
    22.875 8.4544e+11
    22.887 8.4794e+11
    22.899 8.5044e+11
    22.912 8.5295e+11
    22.924 8.5546e+11
    22.937 8.5798e+11
    22.949  8.605e+11
    22.961 8.6302e+11
    22.974 8.6555e+11
    22.986 8.6809e+11
    22.999 8.7063e+11
    23.011 8.7318e+11
    23.023 8.7573e+11
    23.036 8.7828e+11
    23.048 8.8084e+11
    23.061 8.8341e+11
    23.073 8.8598e+11
    23.085 8.8856e+11
    23.098 8.9114e+11
     23.11 8.9373e+11
    23.123 8.9632e+11
    23.135 8.9892e+11
    23.147 9.0151e+11
     23.16 9.0412e+11
    23.172 9.0673e+11
    23.185 9.0935e+11
    23.197 9.1197e+11
    23.209  9.146e+11
    23.222 9.1723e+11
    23.234 9.1987e+11
    23.247  9.225e+11
    23.259 9.2515e+11
    23.271  9.278e+11
    23.284 9.3046e+11
    23.296 9.3312e+11
    23.308 9.3579e+11
    23.321 9.3846e+11
    23.333 9.4113e+11
    23.346 9.4382e+11
    23.358 9.4651e+11
     23.37  9.492e+11
    23.383  9.519e+11
    23.395  9.546e+11
    23.408 9.5731e+11
     23.42 9.6002e+11
    23.432 9.6274e+11
    23.445 9.6546e+11
    23.457 9.6819e+11
     23.47 9.7092e+11
    23.482 9.7366e+11
    23.494  9.764e+11
    23.507 9.7915e+11
    23.519  9.819e+11
    23.532 9.8466e+11
    23.544 9.8743e+11
    23.556 9.9019e+11
    23.569 9.9297e+11
    23.581 9.9575e+11
    23.594 9.9853e+11
    23.606 1.0013e+12
    23.618 1.0041e+12
    23.631 1.0069e+12
    23.643 1.0097e+12
    23.656 1.0125e+12
    23.668 1.0153e+12
     23.68 1.0182e+12
    23.693  1.021e+12
    23.705 1.0238e+12
    23.718 1.0267e+12
     23.73 1.0295e+12
    23.742 1.0324e+12
    23.755 1.0352e+12
    23.767 1.0381e+12
     23.78 1.0409e+12
    23.792 1.0438e+12
    23.804 1.0467e+12
    23.817 1.0495e+12
    23.829 1.0524e+12
    23.842 1.0553e+12
    23.854 1.0582e+12
    23.866 1.0611e+12
    23.879  1.064e+12
    23.891 1.0669e+12
    23.904 1.0698e+12
    23.916 1.0728e+12
    23.928 1.0757e+12
    23.941 1.0786e+12
    23.953 1.0815e+12
    23.966 1.0845e+12
    23.978 1.0874e+12
     23.99 1.0904e+12
    24.003 1.0933e+12
    24.015 1.0963e+12
    24.028 1.0993e+12
     24.04 1.1022e+12
    24.052 1.1052e+12
    24.065 1.1082e+12
    24.077 1.1112e+12
     24.09 1.1142e+12
    24.102 1.1172e+12
    24.114 1.1202e+12
    24.127 1.1232e+12
    24.139 1.1262e+12
    24.152 1.1292e+12
    24.164 1.1323e+12
    24.176 1.1353e+12
    24.189 1.1383e+12
    24.201 1.1414e+12
    24.214 1.1444e+12
    24.226 1.1475e+12
    24.238 1.1505e+12
    24.251 1.1536e+12
    24.263 1.1567e+12
    24.276 1.1597e+12
    24.288 1.1628e+12
      24.3 1.1659e+12
    24.313  1.169e+12
    24.325 1.1721e+12
    24.338 1.1752e+12
     24.35 1.1783e+12
    24.362 1.1814e+12
    24.375 1.1845e+12
    24.387 1.1876e+12
      24.4 1.1907e+12
    24.412 1.1939e+12
    24.424  1.197e+12
    24.437 1.2002e+12
    24.449 1.2033e+12
    24.462 1.2065e+12
    24.474 1.2096e+12
    24.486 1.2128e+12
    24.499  1.216e+12
    24.511 1.2191e+12
    24.524 1.2223e+12
    24.536 1.2255e+12
    24.548 1.2287e+12
    24.561 1.2319e+12
    24.573 1.2351e+12
    24.585 1.2383e+12
    24.598 1.2415e+12
     24.61 1.2447e+12
    24.623  1.248e+12
    24.635 1.2512e+12
    24.647 1.2544e+12
     24.66 1.2577e+12
    24.672 1.2609e+12
    24.685 1.2642e+12
    24.697 1.2674e+12
    24.709 1.2707e+12
    24.722  1.274e+12
    24.734 1.2772e+12
    24.747 1.2805e+12
    24.759 1.2838e+12
    24.771 1.2871e+12
    24.784 1.2904e+12
    24.796 1.2937e+12
    24.809  1.297e+12
    24.821 1.3003e+12
    24.833 1.3036e+12
    24.846 1.3069e+12
    24.858 1.3103e+12
    24.871 1.3136e+12
    24.883 1.3169e+12
    24.895 1.3203e+12
    24.908 1.3236e+12
     24.92  1.327e+12
    24.933 1.3303e+12
    24.945 1.3337e+12
    24.957 1.3371e+12
     24.97 1.3405e+12
    24.982 1.3438e+12
    24.995 1.3472e+12
    25.007 1.3506e+12
    25.019  1.354e+12
    25.032 1.3574e+12
    25.044 1.3608e+12
    25.057 1.3643e+12
    25.069 1.3677e+12
    25.081 1.3711e+12
    25.094 1.3745e+12
    25.106  1.378e+12
    25.119 1.3814e+12
    25.131 1.3849e+12
    25.143 1.3883e+12
    25.156 1.3918e+12
    25.168 1.3953e+12
    25.181 1.3987e+12
    25.193 1.4022e+12
    25.205 1.4057e+12
    25.218 1.4092e+12
     25.23 1.4127e+12
    25.243 1.4162e+12
    25.255 1.4197e+12
    25.267 1.4232e+12
     25.28 1.4267e+12
    25.292 1.4302e+12
    25.305 1.4337e+12
    25.317 1.4373e+12
    25.329 1.4408e+12
    25.342 1.4444e+12
    25.354 1.4479e+12
    25.367 1.4515e+12
    25.379  1.455e+12
    25.391 1.4586e+12
    25.404 1.4622e+12
    25.416 1.4657e+12
    25.429 1.4693e+12
    25.441 1.4729e+12
    25.453 1.4765e+12
    25.466 1.4801e+12
    25.478 1.4837e+12
    25.491 1.4873e+12
    25.503 1.4909e+12
    25.515 1.4946e+12
    25.528 1.4982e+12
     25.54 1.5018e+12
    25.553 1.5055e+12
    25.565 1.5091e+12
    25.577 1.5128e+12
     25.59 1.5164e+12
    25.602 1.5201e+12
    25.615 1.5237e+12
    25.627 1.5274e+12
    25.639 1.5311e+12
    25.652 1.5348e+12
    25.664 1.5385e+12
    25.677 1.5422e+12
    25.689 1.5459e+12
    25.701 1.5496e+12
    25.714 1.5533e+12
    25.726  1.557e+12
    25.739 1.5607e+12
    25.751 1.5645e+12
    25.763 1.5682e+12
    25.776 1.5719e+12
    25.788 1.5757e+12
    25.801 1.5794e+12
    25.813 1.5832e+12
    25.825  1.587e+12
    25.838 1.5907e+12
     25.85 1.5945e+12
    25.863 1.5983e+12
    25.875 1.6021e+12
    25.887 1.6059e+12
      25.9 1.6097e+12
    25.912 1.6135e+12
    25.924 1.6173e+12
    25.937 1.6211e+12
    25.949 1.6249e+12
    25.962 1.6287e+12
    25.974 1.6326e+12
    25.986 1.6364e+12
    25.999 1.6403e+12
    26.011 1.6441e+12
    26.024  1.648e+12
    26.036 1.6518e+12
    26.048 1.6557e+12
    26.061 1.6596e+12
    26.073 1.6634e+12
    26.086 1.6673e+12
    26.098 1.6712e+12
     26.11 1.6751e+12
    26.123  1.679e+12
    26.135 1.6829e+12
    26.148 1.6868e+12
     26.16 1.6908e+12
    26.172 1.6947e+12
    26.185 1.6986e+12
    26.197 1.7026e+12
     26.21 1.7065e+12
    26.222 1.7104e+12
    26.234 1.7144e+12
    26.247 1.7183e+12
    26.259 1.7223e+12
    26.272 1.7263e+12
    26.284 1.7303e+12
    26.296 1.7342e+12
    26.309 1.7382e+12
    26.321 1.7422e+12
    26.334 1.7462e+12
    26.346 1.7502e+12
    26.358 1.7542e+12
    26.371 1.7583e+12
    26.383 1.7623e+12
    26.396 1.7663e+12
    26.408 1.7703e+12
     26.42 1.7744e+12
    26.433 1.7784e+12
    26.445 1.7825e+12
    26.458 1.7865e+12
     26.47 1.7906e+12
    26.482 1.7947e+12
    26.495 1.7987e+12
    26.507 1.8028e+12
     26.52 1.8069e+12
    26.532  1.811e+12
    26.544 1.8151e+12
    26.557 1.8192e+12
    26.569 1.8233e+12
    26.582 1.8274e+12
    26.594 1.8316e+12
    26.606 1.8357e+12
    26.619 1.8398e+12
    26.631 1.8439e+12
    26.644 1.8481e+12
    26.656 1.8522e+12
    26.668 1.8564e+12
    26.681 1.8606e+12
    26.693 1.8647e+12
    26.706 1.8689e+12
    26.718 1.8731e+12
     26.73 1.8773e+12
    26.743 1.8815e+12
    26.755 1.8857e+12
    26.768 1.8899e+12
     26.78 1.8941e+12
    26.792 1.8983e+12
    26.805 1.9025e+12
    26.817 1.9067e+12
     26.83  1.911e+12
    26.842 1.9152e+12
    26.854 1.9194e+12
    26.867 1.9237e+12
    26.879  1.928e+12
    26.892 1.9322e+12
    26.904 1.9365e+12
    26.916 1.9408e+12
    26.929  1.945e+12
    26.941 1.9493e+12
    26.954 1.9536e+12
    26.966 1.9579e+12
    26.978 1.9622e+12
    26.991 1.9665e+12
    27.003 1.9708e+12
    27.016 1.9752e+12
    27.028 1.9795e+12
     27.04 1.9838e+12
    27.053 1.9881e+12
    27.065 1.9925e+12
    27.078 1.9968e+12
     27.09 2.0012e+12
    27.102 2.0056e+12
    27.115 2.0099e+12
    27.127 2.0143e+12
     27.14 2.0187e+12
    27.152 2.0231e+12
    27.164 2.0275e+12
    27.177 2.0319e+12
    27.189 2.0363e+12
    27.202 2.0407e+12
    27.214 2.0451e+12
    27.226 2.0495e+12
    27.239 2.0539e+12
    27.251 2.0584e+12
    27.263 2.0628e+12
    27.276 2.0672e+12
    27.288 2.0717e+12
    27.301 2.0762e+12
    27.313 2.0806e+12
    27.325 2.0851e+12
    27.338 2.0896e+12
     27.35  2.094e+12
    27.363 2.0985e+12
    27.375  2.103e+12
    27.387 2.1075e+12
      27.4  2.112e+12
    27.412 2.1165e+12
    27.425  2.121e+12
    27.437 2.1256e+12
    27.449 2.1301e+12
    27.462 2.1346e+12
    27.474 2.1392e+12
    27.487 2.1437e+12
    27.499 2.1483e+12
    27.511 2.1528e+12
    27.524 2.1574e+12
    27.536 2.1619e+12
    27.549 2.1665e+12
    27.561 2.1711e+12
    27.573 2.1757e+12
    27.586 2.1803e+12
    27.598 2.1849e+12
    27.611 2.1895e+12
    27.623 2.1941e+12
    27.635 2.1987e+12
    27.648 2.2033e+12
     27.66  2.208e+12
    27.673 2.2126e+12
    27.685 2.2172e+12
    27.697 2.2219e+12
     27.71 2.2265e+12
    27.722 2.2312e+12
    27.735 2.2359e+12
    27.747 2.2405e+12
    27.759 2.2452e+12
    27.772 2.2499e+12
    27.784 2.2546e+12
    27.797 2.2593e+12
    27.809  2.264e+12
    27.821 2.2687e+12
    27.834 2.2734e+12
    27.846 2.2781e+12
    27.859 2.2828e+12
    27.871 2.2876e+12
    27.883 2.2923e+12
    27.896  2.297e+12
    27.908 2.3018e+12
    27.921 2.3066e+12
    27.933 2.3113e+12
    27.945 2.3161e+12
    27.958 2.3209e+12
     27.97 2.3256e+12
    27.983 2.3304e+12
    27.995 2.3352e+12
    28.007   2.34e+12
     28.02 2.3448e+12
    28.032 2.3496e+12
    28.045 2.3544e+12
    28.057 2.3592e+12
    28.069 2.3641e+12
    28.082 2.3689e+12
    28.094 2.3737e+12
    28.107 2.3786e+12
    28.119 2.3834e+12
    28.131 2.3883e+12
    28.144 2.3932e+12
    28.156  2.398e+12
    28.169 2.4029e+12
    28.181 2.4078e+12
    28.193 2.4127e+12
    28.206 2.4176e+12
    28.218 2.4225e+12
    28.231 2.4274e+12
    28.243 2.4323e+12
    28.255 2.4372e+12
    28.268 2.4421e+12
     28.28  2.447e+12
    28.293  2.452e+12
    28.305 2.4569e+12
    28.317 2.4619e+12
     28.33 2.4668e+12
    28.342 2.4718e+12
    28.355 2.4767e+12
    28.367 2.4817e+12
    28.379 2.4867e+12
    28.392 2.4917e+12
    28.404 2.4967e+12
    28.417 2.5017e+12
    28.429 2.5067e+12
    28.441 2.5117e+12
    28.454 2.5167e+12
    28.466 2.5217e+12
    28.479 2.5267e+12
    28.491 2.5318e+12
    28.503 2.5368e+12
    28.516 2.5418e+12
    28.528 2.5469e+12
    28.541 2.5519e+12
    28.553  2.557e+12
    28.565 2.5621e+12
    28.578 2.5671e+12
     28.59 2.5722e+12
    28.602 2.5773e+12
    28.615 2.5824e+12
    28.627 2.5875e+12
     28.64 2.5926e+12
    28.652 2.5977e+12
    28.664 2.6028e+12
    28.677  2.608e+12
    28.689 2.6131e+12
    28.702 2.6182e+12
    28.714 2.6234e+12
    28.726 2.6285e+12
    28.739 2.6337e+12
    28.751 2.6388e+12
    28.764  2.644e+12
    28.776 2.6492e+12
    28.788 2.6543e+12
    28.801 2.6595e+12
    28.813 2.6647e+12
    28.826 2.6699e+12
    28.838 2.6751e+12
     28.85 2.6803e+12
    28.863 2.6855e+12
    28.875 2.6907e+12
    28.888  2.696e+12
      28.9 2.7012e+12
    28.912 2.7064e+12
    28.925 2.7117e+12
    28.937 2.7169e+12
     28.95 2.7222e+12
    28.962 2.7275e+12
    28.974 2.7327e+12
    28.987  2.738e+12
    28.999 2.7433e+12
    29.012 2.7486e+12
    29.024 2.7539e+12
    29.036 2.7592e+12
    29.049 2.7645e+12
    29.061 2.7698e+12
    29.074 2.7751e+12
    29.086 2.7804e+12
    29.098 2.7857e+12
    29.111 2.7911e+12
    29.123 2.7964e+12
    29.136 2.8018e+12
    29.148 2.8071e+12
     29.16 2.8125e+12
    29.173 2.8178e+12
    29.185 2.8232e+12
    29.198 2.8286e+12
     29.21  2.834e+12
    29.222 2.8394e+12
    29.235 2.8448e+12
    29.247 2.8502e+12
     29.26 2.8556e+12
    29.272  2.861e+12
    29.284 2.8664e+12
    29.297 2.8718e+12
    29.309 2.8773e+12
    29.322 2.8827e+12
    29.334 2.8882e+12
    29.346 2.8936e+12
    29.359 2.8991e+12
    29.371 2.9045e+12
    29.384   2.91e+12
    29.396 2.9155e+12
    29.408  2.921e+12
    29.421 2.9264e+12
    29.433 2.9319e+12
    29.446 2.9374e+12
    29.458  2.943e+12
     29.47 2.9485e+12
    29.483  2.954e+12
    29.495 2.9595e+12
    29.508  2.965e+12
     29.52 2.9706e+12
    29.532 2.9761e+12
    29.545 2.9817e+12
    29.557 2.9872e+12
     29.57 2.9928e+12
    29.582 2.9983e+12
    29.594 3.0039e+12
    29.607 3.0095e+12
    29.619 3.0151e+12
    29.632 3.0207e+12
    29.644 3.0263e+12
    29.656 3.0319e+12
    29.669 3.0375e+12
    29.681 3.0431e+12
    29.694 3.0487e+12
    29.706 3.0544e+12
    29.718   3.06e+12
    29.731 3.0656e+12
    29.743 3.0713e+12
    29.756 3.0769e+12
    29.768 3.0826e+12
     29.78 3.0883e+12
    29.793 3.0939e+12
    29.805 3.0996e+12
    29.818 3.1053e+12
     29.83  3.111e+12
    29.842 3.1167e+12
    29.855 3.1224e+12
    29.867 3.1281e+12
     29.88 3.1338e+12
    29.892 3.1395e+12
    29.904 3.1453e+12
    29.917  3.151e+12
    29.929 3.1567e+12
    29.941 3.1625e+12
    29.954 3.1682e+12
    29.966  3.174e+12
    29.979 3.1797e+12
    29.991 3.1855e+12
    30.003 3.1913e+12
