RRKM rate, sf=0.970, S*=-13.64, E0=1.12 and Delta=0.89
   En (eV)    k (s-1)
         0          0
  0.012398          0
  0.024796          0
  0.037194          0
  0.049593          0
  0.061991          0
  0.074389          0
  0.086787          0
  0.099185          0
   0.11158          0
   0.12398          0
   0.13638          0
   0.14878          0
   0.16118          0
   0.17357          0
   0.18597          0
   0.19837          0
   0.21077          0
   0.22317          0
   0.23556          0
   0.24796          0
   0.26036          0
   0.27276          0
   0.28516          0
   0.29756          0
   0.30995          0
   0.32235          0
   0.33475          0
   0.34715          0
   0.35955          0
   0.37194          0
   0.38434          0
   0.39674          0
   0.40914          0
   0.42154          0
   0.43393          0
   0.44633          0
   0.45873          0
   0.47113          0
   0.48353          0
   0.49593          0
   0.50832          0
   0.52072          0
   0.53312          0
   0.54552          0
   0.55792          0
   0.57031          0
   0.58271          0
   0.59511          0
   0.60751          0
   0.61991          0
    0.6323          0
    0.6447          0
    0.6571          0
    0.6695          0
    0.6819          0
    0.6943          0
   0.70669          0
   0.71909          0
   0.73149          0
   0.74389          0
   0.75629          0
   0.76868          0
   0.78108          0
   0.79348          0
   0.80588          0
   0.81828          0
   0.83067          0
   0.84307          0
   0.85547          0
   0.86787          0
   0.88027          0
   0.89267          0
   0.90506          0
   0.91746          0
   0.92986          0
   0.94226          0
   0.95466          0
   0.96705          0
   0.97945          0
   0.99185          0
    1.0042          0
    1.0166          0
     1.029          0
    1.0414          0
    1.0538          0
    1.0662          0
    1.0786          0
     1.091          0
    1.1034          0
    1.1158          0
    1.1282   0.037236
    1.1406   0.089922
     1.153     0.2174
    1.1654    0.38978
    1.1778    0.67688
    1.1902     1.0819
    1.2026     1.6793
     1.215     2.5296
    1.2274     3.6839
    1.2398     5.2954
    1.2522     7.4017
    1.2646     10.237
     1.277     13.868
    1.2894     18.594
    1.3018     24.568
    1.3142     32.142
    1.3266     41.607
     1.339     53.355
    1.3514     67.853
    1.3638     85.565
    1.3762     107.15
    1.3886     133.19
     1.401     164.55
    1.4134     202.01
    1.4258     246.62
    1.4382     299.43
    1.4506     361.73
     1.463     434.87
    1.4754      520.4
    1.4878     620.07
    1.5002     735.76
    1.5126     869.62
     1.525     1023.9
    1.5374     1201.4
    1.5498     1404.6
    1.5622       1637
    1.5746     1901.6
     1.587     2202.5
    1.5994     2543.4
    1.6118       2929
    1.6242     3363.9
    1.6366     3853.4
     1.649       4403
    1.6613     5018.9
    1.6737     5707.7
    1.6861     6476.3
    1.6985     7332.4
    1.7109     8284.3
    1.7233     9340.7
    1.7357      10511
    1.7481      11805
    1.7605      13234
    1.7729      14809
    1.7853      16543
    1.7977      18449
    1.8101      20540
    1.8225      22831
    1.8349      25338
    1.8473      28078
    1.8597      31069
    1.8721      34329
    1.8845      37877
    1.8969      41736
    1.9093      45926
    1.9217      50472
    1.9341      55397
    1.9465      60728
    1.9589      66492
    1.9713      72718
    1.9837      79435
    1.9961      86676
    2.0085      94473
    2.0209 1.0286e+05
    2.0333 1.1188e+05
    2.0457 1.2156e+05
    2.0581 1.3195e+05
    2.0705 1.4308e+05
    2.0829 1.5501e+05
    2.0953 1.6777e+05
    2.1077 1.8141e+05
    2.1201 1.9599e+05
    2.1325 2.1156e+05
    2.1449 2.2816e+05
    2.1573 2.4586e+05
    2.1697 2.6471e+05
    2.1821 2.8478e+05
    2.1945 3.0612e+05
    2.2069  3.288e+05
    2.2193  3.529e+05
    2.2317 3.7847e+05
    2.2441  4.056e+05
    2.2565 4.3437e+05
    2.2689 4.6483e+05
    2.2813 4.9709e+05
    2.2937 5.3122e+05
    2.3061 5.6732e+05
    2.3185 6.0547e+05
    2.3308 6.4576e+05
    2.3432  6.883e+05
    2.3556 7.3317e+05
     2.368 7.8049e+05
    2.3804 8.3037e+05
    2.3928  8.829e+05
    2.4052  9.382e+05
    2.4176  9.964e+05
      2.43 1.0576e+06
    2.4424  1.122e+06
    2.4548 1.1896e+06
    2.4672 1.2606e+06
    2.4796 1.3351e+06
     2.492 1.4133e+06
    2.5044 1.4953e+06
    2.5168 1.5813e+06
    2.5292 1.6714e+06
    2.5416 1.7657e+06
     2.554 1.8645e+06
    2.5664 1.9678e+06
    2.5788  2.076e+06
    2.5912  2.189e+06
    2.6036 2.3072e+06
     2.616 2.4306e+06
    2.6284 2.5596e+06
    2.6408 2.6942e+06
    2.6532 2.8346e+06
    2.6656 2.9811e+06
     2.678 3.1339e+06
    2.6904 3.2932e+06
    2.7028 3.4592e+06
    2.7152  3.632e+06
    2.7276 3.8121e+06
      2.74 3.9995e+06
    2.7524 4.1945e+06
    2.7648 4.3973e+06
    2.7772 4.6083e+06
    2.7896 4.8276e+06
     2.802 5.0555e+06
    2.8144 5.2923e+06
    2.8268 5.5382e+06
    2.8392 5.7935e+06
    2.8516 6.0585e+06
     2.864 6.3335e+06
    2.8764 6.6188e+06
    2.8888 6.9146e+06
    2.9012 7.2213e+06
    2.9136 7.5392e+06
     2.926 7.8685e+06
    2.9384 8.2097e+06
    2.9508  8.563e+06
    2.9632 8.9288e+06
    2.9756 9.3074e+06
     2.988 9.6992e+06
    3.0003 1.0104e+07
    3.0127 1.0524e+07
    3.0251 1.0957e+07
    3.0375 1.1405e+07
    3.0499 1.1868e+07
    3.0623 1.2346e+07
    3.0747  1.284e+07
    3.0871 1.3351e+07
    3.0995 1.3877e+07
    3.1119 1.4421e+07
    3.1243 1.4982e+07
    3.1367 1.5561e+07
    3.1491 1.6159e+07
    3.1615 1.6774e+07
    3.1739  1.741e+07
    3.1863 1.8064e+07
    3.1987 1.8739e+07
    3.2111 1.9434e+07
    3.2235  2.015e+07
    3.2359 2.0888e+07
    3.2483 2.1647e+07
    3.2607 2.2429e+07
    3.2731 2.3234e+07
    3.2855 2.4062e+07
    3.2979 2.4915e+07
    3.3103 2.5792e+07
    3.3227 2.6693e+07
    3.3351 2.7621e+07
    3.3475 2.8574e+07
    3.3599 2.9554e+07
    3.3723 3.0562e+07
    3.3847 3.1597e+07
    3.3971  3.266e+07
    3.4095 3.3753e+07
    3.4219 3.4875e+07
    3.4343 3.6027e+07
    3.4467  3.721e+07
    3.4591 3.8424e+07
    3.4715  3.967e+07
    3.4839 4.0949e+07
    3.4963 4.2261e+07
    3.5087 4.3606e+07
    3.5211 4.4987e+07
    3.5335 4.6402e+07
    3.5459 4.7853e+07
    3.5583 4.9342e+07
    3.5707 5.0867e+07
    3.5831  5.243e+07
    3.5955 5.4031e+07
    3.6079 5.5672e+07
    3.6203 5.7353e+07
    3.6327 5.9074e+07
    3.6451 6.0838e+07
    3.6574 6.2643e+07
    3.6698 6.4491e+07
    3.6822 6.6383e+07
    3.6946 6.8319e+07
     3.707 7.0301e+07
    3.7194 7.2328e+07
    3.7318 7.4403e+07
    3.7442 7.6525e+07
    3.7566 7.8695e+07
     3.769 8.0914e+07
    3.7814 8.3184e+07
    3.7938 8.5504e+07
    3.8062 8.7875e+07
    3.8186 9.0301e+07
     3.831 9.2778e+07
    3.8434  9.531e+07
    3.8558 9.7896e+07
    3.8682 1.0054e+08
    3.8806 1.0324e+08
     3.893   1.06e+08
    3.9054 1.0881e+08
    3.9178 1.1169e+08
    3.9302 1.1462e+08
    3.9426 1.1762e+08
     3.955 1.2068e+08
    3.9674  1.238e+08
    3.9798 1.2699e+08
    3.9922 1.3024e+08
    4.0046 1.3356e+08
     4.017 1.3694e+08
    4.0294 1.4039e+08
    4.0418 1.4392e+08
    4.0542 1.4751e+08
    4.0666 1.5117e+08
     4.079  1.549e+08
    4.0914 1.5871e+08
    4.1038 1.6259e+08
    4.1162 1.6655e+08
    4.1286 1.7058e+08
     4.141 1.7469e+08
    4.1534 1.7887e+08
    4.1658 1.8314e+08
    4.1782 1.8748e+08
    4.1906 1.9191e+08
     4.203 1.9642e+08
    4.2154 2.0101e+08
    4.2278 2.0569e+08
    4.2402 2.1046e+08
    4.2526  2.153e+08
     4.265 2.2024e+08
    4.2774 2.2527e+08
    4.2898 2.3039e+08
    4.3022 2.3559e+08
    4.3146 2.4089e+08
    4.3269 2.4629e+08
    4.3393 2.5178e+08
    4.3517 2.5736e+08
    4.3641 2.6304e+08
    4.3765 2.6882e+08
    4.3889  2.747e+08
    4.4013 2.8068e+08
    4.4137 2.8676e+08
    4.4261 2.9295e+08
    4.4385 2.9924e+08
    4.4509 3.0563e+08
    4.4633 3.1213e+08
    4.4757 3.1874e+08
    4.4881 3.2546e+08
    4.5005 3.3228e+08
    4.5129 3.3922e+08
    4.5253 3.4628e+08
    4.5377 3.5344e+08
    4.5501 3.6073e+08
    4.5625 3.6812e+08
    4.5749 3.7564e+08
    4.5873 3.8328e+08
    4.5997 3.9104e+08
    4.6121 3.9891e+08
    4.6245 4.0692e+08
    4.6369 4.1504e+08
    4.6493  4.233e+08
    4.6617 4.3168e+08
    4.6741 4.4019e+08
    4.6865 4.4882e+08
    4.6989  4.576e+08
    4.7113  4.665e+08
    4.7237 4.7553e+08
    4.7361 4.8471e+08
    4.7485 4.9401e+08
    4.7609 5.0346e+08
    4.7733 5.1305e+08
    4.7857 5.2278e+08
    4.7981 5.3265e+08
    4.8105 5.4266e+08
    4.8229 5.5282e+08
    4.8353 5.6313e+08
    4.8477 5.7358e+08
    4.8601 5.8419e+08
    4.8725 5.9494e+08
    4.8849 6.0585e+08
    4.8973 6.1691e+08
    4.9097 6.2812e+08
    4.9221  6.395e+08
    4.9345 6.5103e+08
    4.9469 6.6272e+08
    4.9593 6.7457e+08
    4.9717 6.8659e+08
     4.984 6.9877e+08
    4.9964 7.1111e+08
    5.0088 7.2362e+08
    5.0212  7.363e+08
    5.0336 7.4915e+08
     5.046 7.6218e+08
    5.0584 7.7537e+08
    5.0708 7.8874e+08
    5.0832 8.0229e+08
    5.0956 8.1601e+08
     5.108 8.2992e+08
    5.1204   8.44e+08
    5.1328 8.5827e+08
    5.1452 8.7272e+08
    5.1576 8.8736e+08
      5.17 9.0218e+08
    5.1824  9.172e+08
    5.1948  9.324e+08
    5.2072 9.4779e+08
    5.2196 9.6338e+08
     5.232 9.7917e+08
    5.2444 9.9515e+08
    5.2568 1.0113e+09
    5.2692 1.0277e+09
    5.2816 1.0443e+09
     5.294 1.0611e+09
    5.3064 1.0781e+09
    5.3188 1.0953e+09
    5.3312 1.1127e+09
    5.3436 1.1303e+09
     5.356 1.1481e+09
    5.3684 1.1661e+09
    5.3808 1.1844e+09
    5.3932 1.2028e+09
    5.4056 1.2215e+09
     5.418 1.2404e+09
    5.4304 1.2596e+09
    5.4428 1.2789e+09
    5.4552 1.2985e+09
    5.4676 1.3183e+09
      5.48 1.3383e+09
    5.4924 1.3586e+09
    5.5048 1.3791e+09
    5.5172 1.3998e+09
    5.5296 1.4207e+09
     5.542 1.4419e+09
    5.5544 1.4633e+09
    5.5668  1.485e+09
    5.5792 1.5069e+09
    5.5916 1.5291e+09
     5.604 1.5515e+09
    5.6164 1.5741e+09
    5.6288  1.597e+09
    5.6412 1.6202e+09
    5.6535 1.6436e+09
    5.6659 1.6672e+09
    5.6783 1.6911e+09
    5.6907 1.7153e+09
    5.7031 1.7397e+09
    5.7155 1.7644e+09
    5.7279 1.7893e+09
    5.7403 1.8145e+09
    5.7527   1.84e+09
    5.7651 1.8657e+09
    5.7775 1.8917e+09
    5.7899  1.918e+09
    5.8023 1.9445e+09
    5.8147 1.9713e+09
    5.8271 1.9984e+09
    5.8395 2.0258e+09
    5.8519 2.0535e+09
    5.8643 2.0814e+09
    5.8767 2.1096e+09
    5.8891 2.1381e+09
    5.9015 2.1669e+09
    5.9139  2.196e+09
    5.9263 2.2254e+09
    5.9387  2.255e+09
    5.9511  2.285e+09
    5.9635 2.3152e+09
    5.9759 2.3458e+09
    5.9883 2.3766e+09
    6.0007 2.4078e+09
    6.0131 2.4392e+09
    6.0255  2.471e+09
    6.0379  2.503e+09
    6.0503 2.5354e+09
    6.0627 2.5681e+09
    6.0751 2.6011e+09
    6.0875 2.6344e+09
    6.0999  2.668e+09
    6.1123 2.7019e+09
    6.1247 2.7362e+09
    6.1371 2.7707e+09
    6.1495 2.8056e+09
    6.1619 2.8408e+09
    6.1743 2.8764e+09
    6.1867 2.9123e+09
    6.1991 2.9485e+09
    6.2115  2.985e+09
    6.2239 3.0218e+09
    6.2363 3.0591e+09
    6.2487 3.0966e+09
    6.2611 3.1345e+09
    6.2735 3.1727e+09
    6.2859 3.2112e+09
    6.2983 3.2501e+09
    6.3107 3.2894e+09
     6.323  3.329e+09
    6.3354 3.3689e+09
    6.3478 3.4092e+09
    6.3602 3.4499e+09
    6.3726 3.4909e+09
     6.385 3.5322e+09
    6.3974  3.574e+09
    6.4098  3.616e+09
    6.4222 3.6585e+09
    6.4346 3.7013e+09
     6.447 3.7445e+09
    6.4594  3.788e+09
    6.4718 3.8319e+09
    6.4842 3.8762e+09
    6.4966 3.9208e+09
     6.509 3.9659e+09
    6.5214 4.0113e+09
    6.5338  4.057e+09
    6.5462 4.1032e+09
    6.5586 4.1497e+09
     6.571 4.1967e+09
    6.5834  4.244e+09
    6.5958 4.2917e+09
    6.6082 4.3398e+09
    6.6206 4.3883e+09
     6.633 4.4372e+09
    6.6454 4.4864e+09
    6.6578 4.5361e+09
    6.6702 4.5861e+09
    6.6826 4.6366e+09
     6.695 4.6875e+09
    6.7074 4.7387e+09
    6.7198 4.7904e+09
    6.7322 4.8425e+09
    6.7446  4.895e+09
     6.757 4.9479e+09
    6.7694 5.0012e+09
    6.7818  5.055e+09
    6.7942 5.1091e+09
    6.8066 5.1637e+09
     6.819 5.2187e+09
    6.8314 5.2741e+09
    6.8438 5.3299e+09
    6.8562 5.3862e+09
    6.8686 5.4428e+09
     6.881    5.5e+09
    6.8934 5.5575e+09
    6.9058 5.6155e+09
    6.9182 5.6739e+09
    6.9306 5.7327e+09
     6.943  5.792e+09
    6.9554 5.8518e+09
    6.9678 5.9119e+09
    6.9801 5.9725e+09
    6.9925 6.0336e+09
    7.0049 6.0951e+09
    7.0173 6.1571e+09
    7.0297 6.2195e+09
    7.0421 6.2823e+09
    7.0545 6.3456e+09
    7.0669 6.4094e+09
    7.0793 6.4736e+09
    7.0917 6.5383e+09
    7.1041 6.6035e+09
    7.1165 6.6691e+09
    7.1289 6.7351e+09
    7.1413 6.8017e+09
    7.1537 6.8687e+09
    7.1661 6.9361e+09
    7.1785 7.0042e+09
    7.1909 7.0726e+09
    7.2033 7.1414e+09
    7.2157 7.2108e+09
    7.2281 7.2807e+09
    7.2405  7.351e+09
    7.2529 7.4219e+09
    7.2653 7.4932e+09
    7.2777 7.5649e+09
    7.2901 7.6372e+09
    7.3025   7.71e+09
    7.3149 7.7833e+09
    7.3273  7.857e+09
    7.3397 7.9313e+09
    7.3521  8.006e+09
    7.3645 8.0812e+09
    7.3769  8.157e+09
    7.3893 8.2333e+09
    7.4017   8.31e+09
    7.4141 8.3872e+09
    7.4265  8.465e+09
    7.4389 8.5433e+09
    7.4513 8.6221e+09
    7.4637 8.7013e+09
    7.4761 8.7811e+09
    7.4885 8.8615e+09
    7.5009 8.9423e+09
    7.5133 9.0236e+09
    7.5257 9.1055e+09
    7.5381 9.1879e+09
    7.5505 9.2709e+09
    7.5629 9.3543e+09
    7.5753 9.4383e+09
    7.5877 9.5228e+09
    7.6001 9.6078e+09
    7.6125 9.6934e+09
    7.6249 9.7795e+09
    7.6373 9.8662e+09
    7.6496 9.9533e+09
     7.662 1.0041e+10
    7.6744 1.0129e+10
    7.6868 1.0218e+10
    7.6992 1.0307e+10
    7.7116 1.0397e+10
     7.724 1.0488e+10
    7.7364 1.0579e+10
    7.7488  1.067e+10
    7.7612 1.0762e+10
    7.7736 1.0855e+10
     7.786 1.0948e+10
    7.7984 1.1042e+10
    7.8108 1.1136e+10
    7.8232 1.1231e+10
    7.8356 1.1327e+10
     7.848 1.1423e+10
    7.8604 1.1519e+10
    7.8728 1.1616e+10
    7.8852 1.1714e+10
    7.8976 1.1812e+10
      7.91 1.1911e+10
    7.9224 1.2011e+10
    7.9348 1.2111e+10
    7.9472 1.2211e+10
    7.9596 1.2312e+10
     7.972 1.2414e+10
    7.9844 1.2516e+10
    7.9968 1.2619e+10
    8.0092 1.2723e+10
    8.0216 1.2827e+10
     8.034 1.2931e+10
    8.0464 1.3037e+10
    8.0588 1.3143e+10
    8.0712 1.3249e+10
    8.0836 1.3356e+10
     8.096 1.3464e+10
    8.1084 1.3572e+10
    8.1208 1.3681e+10
    8.1332  1.379e+10
    8.1456   1.39e+10
     8.158 1.4011e+10
    8.1704 1.4122e+10
    8.1828 1.4234e+10
    8.1952 1.4346e+10
    8.2076 1.4459e+10
      8.22 1.4573e+10
    8.2324 1.4687e+10
    8.2448 1.4802e+10
    8.2572 1.4918e+10
    8.2696 1.5034e+10
     8.282 1.5151e+10
    8.2944 1.5268e+10
    8.3067 1.5386e+10
    8.3191 1.5504e+10
    8.3315 1.5624e+10
    8.3439 1.5744e+10
    8.3563 1.5864e+10
    8.3687 1.5985e+10
    8.3811 1.6107e+10
    8.3935 1.6229e+10
    8.4059 1.6352e+10
    8.4183 1.6476e+10
    8.4307   1.66e+10
    8.4431 1.6725e+10
    8.4555 1.6851e+10
    8.4679 1.6977e+10
    8.4803 1.7104e+10
    8.4927 1.7231e+10
    8.5051 1.7359e+10
    8.5175 1.7488e+10
    8.5299 1.7618e+10
    8.5423 1.7748e+10
    8.5547 1.7878e+10
    8.5671  1.801e+10
    8.5795 1.8142e+10
    8.5919 1.8275e+10
    8.6043 1.8408e+10
    8.6167 1.8542e+10
    8.6291 1.8677e+10
    8.6415 1.8812e+10
    8.6539 1.8948e+10
    8.6663 1.9085e+10
    8.6787 1.9222e+10
    8.6911  1.936e+10
    8.7035 1.9499e+10
    8.7159 1.9638e+10
    8.7283 1.9778e+10
    8.7407 1.9919e+10
    8.7531  2.006e+10
    8.7655 2.0202e+10
    8.7779 2.0345e+10
    8.7903 2.0488e+10
    8.8027 2.0632e+10
    8.8151 2.0777e+10
    8.8275 2.0922e+10
    8.8399 2.1068e+10
    8.8523 2.1215e+10
    8.8647 2.1363e+10
    8.8771 2.1511e+10
    8.8895  2.166e+10
    8.9019 2.1809e+10
    8.9143 2.1959e+10
    8.9267  2.211e+10
    8.9391 2.2262e+10
    8.9515 2.2414e+10
    8.9639 2.2567e+10
    8.9762 2.2721e+10
    8.9886 2.2875e+10
     9.001  2.303e+10
    9.0134 2.3186e+10
    9.0258 2.3343e+10
    9.0382   2.35e+10
    9.0506 2.3658e+10
     9.063 2.3816e+10
    9.0754 2.3976e+10
    9.0878 2.4136e+10
    9.1002 2.4296e+10
    9.1126 2.4458e+10
     9.125  2.462e+10
    9.1374 2.4783e+10
    9.1498 2.4947e+10
    9.1622 2.5111e+10
    9.1746 2.5276e+10
     9.187 2.5442e+10
    9.1994 2.5608e+10
    9.2118 2.5775e+10
    9.2242 2.5943e+10
    9.2366 2.6112e+10
     9.249 2.6281e+10
    9.2614 2.6451e+10
    9.2738 2.6622e+10
    9.2862 2.6794e+10
    9.2986 2.6966e+10
     9.311 2.7139e+10
    9.3234 2.7313e+10
    9.3358 2.7487e+10
    9.3482 2.7662e+10
    9.3606 2.7838e+10
     9.373 2.8015e+10
    9.3854 2.8192e+10
    9.3978  2.837e+10
    9.4102 2.8549e+10
    9.4226 2.8729e+10
     9.435 2.8909e+10
    9.4474  2.909e+10
    9.4598 2.9272e+10
    9.4722 2.9455e+10
    9.4846 2.9638e+10
     9.497 2.9822e+10
    9.5094 3.0007e+10
    9.5218 3.0193e+10
    9.5342 3.0379e+10
    9.5466 3.0566e+10
     9.559 3.0754e+10
    9.5714 3.0942e+10
    9.5838 3.1132e+10
    9.5962 3.1322e+10
    9.6086 3.1513e+10
     9.621 3.1704e+10
    9.6333 3.1897e+10
    9.6457  3.209e+10
    9.6581 3.2284e+10
    9.6705 3.2478e+10
    9.6829 3.2674e+10
    9.6953  3.287e+10
    9.7077 3.3067e+10
    9.7201 3.3265e+10
    9.7325 3.3463e+10
    9.7449 3.3662e+10
    9.7573 3.3862e+10
    9.7697 3.4063e+10
    9.7821 3.4265e+10
    9.7945 3.4467e+10
    9.8069  3.467e+10
    9.8193 3.4874e+10
    9.8317 3.5079e+10
    9.8441 3.5284e+10
    9.8565  3.549e+10
    9.8689 3.5697e+10
    9.8813 3.5905e+10
    9.8937 3.6114e+10
    9.9061 3.6323e+10
    9.9185 3.6533e+10
    9.9309 3.6744e+10
    9.9433 3.6956e+10
    9.9557 3.7168e+10
    9.9681 3.7381e+10
    9.9805 3.7595e+10
    9.9929  3.781e+10
    10.005 3.8026e+10
    10.018 3.8242e+10
     10.03 3.8459e+10
    10.042 3.8677e+10
    10.055 3.8896e+10
    10.067 3.9116e+10
     10.08 3.9336e+10
    10.092 3.9557e+10
    10.104 3.9779e+10
    10.117 4.0002e+10
    10.129 4.0225e+10
    10.142  4.045e+10
    10.154 4.0675e+10
    10.166 4.0901e+10
    10.179 4.1128e+10
    10.191 4.1355e+10
    10.204 4.1584e+10
    10.216 4.1813e+10
    10.228 4.2043e+10
    10.241 4.2273e+10
    10.253 4.2505e+10
    10.266 4.2737e+10
    10.278  4.297e+10
     10.29 4.3204e+10
    10.303 4.3439e+10
    10.315 4.3675e+10
    10.328 4.3911e+10
     10.34 4.4148e+10
    10.352 4.4387e+10
    10.365 4.4625e+10
    10.377 4.4865e+10
     10.39 4.5106e+10
    10.402 4.5347e+10
    10.414 4.5589e+10
    10.427 4.5832e+10
    10.439 4.6076e+10
    10.452  4.632e+10
    10.464 4.6565e+10
    10.476 4.6812e+10
    10.489 4.7059e+10
    10.501 4.7306e+10
    10.514 4.7555e+10
    10.526 4.7805e+10
    10.538 4.8055e+10
    10.551 4.8306e+10
    10.563 4.8558e+10
    10.576 4.8811e+10
    10.588 4.9065e+10
      10.6 4.9319e+10
    10.613 4.9574e+10
    10.625  4.983e+10
    10.638 5.0087e+10
     10.65 5.0345e+10
    10.662 5.0604e+10
    10.675 5.0863e+10
    10.687 5.1123e+10
      10.7 5.1384e+10
    10.712 5.1646e+10
    10.724 5.1909e+10
    10.737 5.2173e+10
    10.749 5.2437e+10
    10.762 5.2702e+10
    10.774 5.2968e+10
    10.786 5.3235e+10
    10.799 5.3503e+10
    10.811 5.3772e+10
    10.824 5.4041e+10
    10.836 5.4311e+10
    10.848 5.4583e+10
    10.861 5.4854e+10
    10.873 5.5127e+10
    10.886 5.5401e+10
    10.898 5.5676e+10
     10.91 5.5951e+10
    10.923 5.6227e+10
    10.935 5.6504e+10
    10.948 5.6782e+10
     10.96 5.7061e+10
    10.972  5.734e+10
    10.985 5.7621e+10
    10.997 5.7902e+10
     11.01 5.8184e+10
    11.022 5.8467e+10
    11.034 5.8751e+10
    11.047 5.9035e+10
    11.059 5.9321e+10
    11.072 5.9607e+10
    11.084 5.9895e+10
    11.096 6.0183e+10
    11.109 6.0471e+10
    11.121 6.0761e+10
    11.134 6.1052e+10
    11.146 6.1343e+10
    11.158 6.1636e+10
    11.171 6.1929e+10
    11.183 6.2223e+10
    11.196 6.2518e+10
    11.208 6.2814e+10
     11.22  6.311e+10
    11.233 6.3408e+10
    11.245 6.3706e+10
    11.258 6.4005e+10
     11.27 6.4305e+10
    11.282 6.4606e+10
    11.295 6.4908e+10
    11.307  6.521e+10
    11.319 6.5514e+10
    11.332 6.5818e+10
    11.344 6.6123e+10
    11.357 6.6429e+10
    11.369 6.6736e+10
    11.381 6.7044e+10
    11.394 6.7353e+10
    11.406 6.7662e+10
    11.419 6.7973e+10
    11.431 6.8284e+10
    11.443 6.8596e+10
    11.456 6.8909e+10
    11.468 6.9223e+10
    11.481 6.9538e+10
    11.493 6.9853e+10
    11.505 7.0169e+10
    11.518 7.0487e+10
     11.53 7.0805e+10
    11.543 7.1124e+10
    11.555 7.1444e+10
    11.567 7.1765e+10
     11.58 7.2086e+10
    11.592 7.2409e+10
    11.605 7.2732e+10
    11.617 7.3057e+10
    11.629 7.3382e+10
    11.642 7.3708e+10
    11.654 7.4034e+10
    11.667 7.4362e+10
    11.679 7.4691e+10
    11.691 7.5021e+10
    11.704 7.5351e+10
    11.716 7.5682e+10
    11.729 7.6014e+10
    11.741 7.6347e+10
    11.753 7.6681e+10
    11.766 7.7016e+10
    11.778 7.7351e+10
    11.791 7.7688e+10
    11.803 7.8025e+10
    11.815 7.8363e+10
    11.828 7.8703e+10
     11.84 7.9043e+10
    11.853 7.9384e+10
    11.865 7.9725e+10
    11.877 8.0068e+10
     11.89 8.0411e+10
    11.902 8.0756e+10
    11.915 8.1101e+10
    11.927 8.1447e+10
    11.939 8.1794e+10
    11.952 8.2142e+10
    11.964 8.2491e+10
    11.977  8.284e+10
    11.989 8.3191e+10
    12.001 8.3542e+10
    12.014 8.3894e+10
    12.026 8.4247e+10
    12.039 8.4602e+10
    12.051 8.4957e+10
    12.063 8.5313e+10
    12.076 8.5669e+10
    12.088 8.6027e+10
    12.101 8.6385e+10
    12.113 8.6744e+10
    12.125 8.7105e+10
    12.138 8.7466e+10
     12.15 8.7828e+10
    12.163 8.8191e+10
    12.175 8.8555e+10
    12.187 8.8919e+10
      12.2 8.9285e+10
    12.212 8.9651e+10
    12.225 9.0018e+10
    12.237 9.0387e+10
    12.249 9.0756e+10
    12.262 9.1126e+10
    12.274 9.1497e+10
    12.287 9.1868e+10
    12.299 9.2241e+10
    12.311 9.2614e+10
    12.324 9.2989e+10
    12.336 9.3364e+10
    12.349  9.374e+10
    12.361 9.4117e+10
    12.373 9.4495e+10
    12.386 9.4874e+10
    12.398 9.5253e+10
    12.411 9.5634e+10
    12.423 9.6016e+10
    12.435 9.6398e+10
    12.448 9.6781e+10
     12.46 9.7165e+10
    12.473  9.755e+10
    12.485 9.7936e+10
    12.497 9.8323e+10
     12.51  9.871e+10
    12.522 9.9099e+10
    12.535 9.9488e+10
    12.547 9.9879e+10
    12.559 1.0027e+11
    12.572 1.0066e+11
    12.584 1.0105e+11
    12.597 1.0145e+11
    12.609 1.0184e+11
    12.621 1.0224e+11
    12.634 1.0264e+11
    12.646 1.0303e+11
    12.658 1.0343e+11
    12.671 1.0383e+11
    12.683 1.0423e+11
    12.696 1.0463e+11
    12.708 1.0503e+11
     12.72 1.0544e+11
    12.733 1.0584e+11
    12.745 1.0625e+11
    12.758 1.0665e+11
     12.77 1.0706e+11
    12.782 1.0746e+11
    12.795 1.0787e+11
    12.807 1.0828e+11
     12.82 1.0869e+11
    12.832  1.091e+11
    12.844 1.0951e+11
    12.857 1.0993e+11
    12.869 1.1034e+11
    12.882 1.1075e+11
    12.894 1.1117e+11
    12.906 1.1158e+11
    12.919   1.12e+11
    12.931 1.1242e+11
    12.944 1.1284e+11
    12.956 1.1326e+11
    12.968 1.1368e+11
    12.981  1.141e+11
    12.993 1.1452e+11
    13.006 1.1495e+11
    13.018 1.1537e+11
     13.03 1.1579e+11
    13.043 1.1622e+11
    13.055 1.1665e+11
    13.068 1.1707e+11
     13.08  1.175e+11
    13.092 1.1793e+11
    13.105 1.1836e+11
    13.117 1.1879e+11
     13.13 1.1923e+11
    13.142 1.1966e+11
    13.154 1.2009e+11
    13.167 1.2053e+11
    13.179 1.2096e+11
    13.192  1.214e+11
    13.204 1.2184e+11
    13.216 1.2228e+11
    13.229 1.2271e+11
    13.241 1.2316e+11
    13.254  1.236e+11
    13.266 1.2404e+11
    13.278 1.2448e+11
    13.291 1.2492e+11
    13.303 1.2537e+11
    13.316 1.2581e+11
    13.328 1.2626e+11
     13.34 1.2671e+11
    13.353 1.2716e+11
    13.365 1.2761e+11
    13.378 1.2805e+11
     13.39 1.2851e+11
    13.402 1.2896e+11
    13.415 1.2941e+11
    13.427 1.2986e+11
     13.44 1.3032e+11
    13.452 1.3077e+11
    13.464 1.3123e+11
    13.477 1.3169e+11
    13.489 1.3214e+11
    13.502  1.326e+11
    13.514 1.3306e+11
    13.526 1.3352e+11
    13.539 1.3398e+11
    13.551 1.3445e+11
    13.564 1.3491e+11
    13.576 1.3537e+11
    13.588 1.3584e+11
    13.601  1.363e+11
    13.613 1.3677e+11
    13.626 1.3724e+11
    13.638 1.3771e+11
     13.65 1.3818e+11
    13.663 1.3865e+11
    13.675 1.3912e+11
    13.688 1.3959e+11
      13.7 1.4006e+11
    13.712 1.4054e+11
    13.725 1.4101e+11
    13.737 1.4149e+11
     13.75 1.4196e+11
    13.762 1.4244e+11
    13.774 1.4292e+11
    13.787  1.434e+11
    13.799 1.4388e+11
    13.812 1.4436e+11
    13.824 1.4484e+11
    13.836 1.4532e+11
    13.849  1.458e+11
    13.861 1.4629e+11
    13.874 1.4677e+11
    13.886 1.4726e+11
    13.898 1.4775e+11
    13.911 1.4824e+11
    13.923 1.4872e+11
    13.936 1.4921e+11
    13.948  1.497e+11
     13.96  1.502e+11
    13.973 1.5069e+11
    13.985 1.5118e+11
    13.997 1.5168e+11
     14.01 1.5217e+11
    14.022 1.5267e+11
    14.035 1.5316e+11
    14.047 1.5366e+11
    14.059 1.5416e+11
    14.072 1.5466e+11
    14.084 1.5516e+11
    14.097 1.5566e+11
    14.109 1.5616e+11
    14.121 1.5666e+11
    14.134 1.5717e+11
    14.146 1.5767e+11
    14.159 1.5818e+11
    14.171 1.5868e+11
    14.183 1.5919e+11
    14.196  1.597e+11
    14.208 1.6021e+11
    14.221 1.6072e+11
    14.233 1.6123e+11
    14.245 1.6174e+11
    14.258 1.6225e+11
     14.27 1.6277e+11
    14.283 1.6328e+11
    14.295 1.6379e+11
    14.307 1.6431e+11
     14.32 1.6483e+11
    14.332 1.6534e+11
    14.345 1.6586e+11
    14.357 1.6638e+11
    14.369  1.669e+11
    14.382 1.6742e+11
    14.394 1.6795e+11
    14.407 1.6847e+11
    14.419 1.6899e+11
    14.431 1.6952e+11
    14.444 1.7004e+11
    14.456 1.7057e+11
    14.469  1.711e+11
    14.481 1.7162e+11
    14.493 1.7215e+11
    14.506 1.7268e+11
    14.518 1.7321e+11
    14.531 1.7375e+11
    14.543 1.7428e+11
    14.555 1.7481e+11
    14.568 1.7535e+11
     14.58 1.7588e+11
    14.593 1.7642e+11
    14.605 1.7695e+11
    14.617 1.7749e+11
     14.63 1.7803e+11
    14.642 1.7857e+11
    14.655 1.7911e+11
    14.667 1.7965e+11
    14.679 1.8019e+11
    14.692 1.8073e+11
    14.704 1.8128e+11
    14.717 1.8182e+11
    14.729 1.8237e+11
    14.741 1.8291e+11
    14.754 1.8346e+11
    14.766 1.8401e+11
    14.779 1.8456e+11
    14.791 1.8511e+11
    14.803 1.8566e+11
    14.816 1.8621e+11
    14.828 1.8676e+11
    14.841 1.8731e+11
    14.853 1.8787e+11
    14.865 1.8842e+11
    14.878 1.8898e+11
     14.89 1.8953e+11
    14.903 1.9009e+11
    14.915 1.9065e+11
    14.927 1.9121e+11
     14.94 1.9177e+11
    14.952 1.9233e+11
    14.965 1.9289e+11
    14.977 1.9345e+11
    14.989 1.9402e+11
    15.002 1.9458e+11
    15.014 1.9515e+11
    15.027 1.9571e+11
    15.039 1.9628e+11
    15.051 1.9685e+11
    15.064 1.9741e+11
    15.076 1.9798e+11
    15.089 1.9855e+11
    15.101 1.9912e+11
    15.113  1.997e+11
    15.126 2.0027e+11
    15.138 2.0084e+11
    15.151 2.0142e+11
    15.163 2.0199e+11
    15.175 2.0257e+11
    15.188 2.0315e+11
      15.2 2.0372e+11
    15.213  2.043e+11
    15.225 2.0488e+11
    15.237 2.0546e+11
     15.25 2.0604e+11
    15.262 2.0663e+11
    15.275 2.0721e+11
    15.287 2.0779e+11
    15.299 2.0838e+11
    15.312 2.0896e+11
    15.324 2.0955e+11
    15.336 2.1013e+11
    15.349 2.1072e+11
    15.361 2.1131e+11
    15.374  2.119e+11
    15.386 2.1249e+11
    15.398 2.1308e+11
    15.411 2.1368e+11
    15.423 2.1427e+11
    15.436 2.1486e+11
    15.448 2.1546e+11
     15.46 2.1605e+11
    15.473 2.1665e+11
    15.485 2.1725e+11
    15.498 2.1784e+11
     15.51 2.1844e+11
    15.522 2.1904e+11
    15.535 2.1964e+11
    15.547 2.2024e+11
     15.56 2.2084e+11
    15.572 2.2145e+11
    15.584 2.2205e+11
    15.597 2.2266e+11
    15.609 2.2326e+11
    15.622 2.2387e+11
    15.634 2.2447e+11
    15.646 2.2508e+11
    15.659 2.2569e+11
    15.671  2.263e+11
    15.684 2.2691e+11
    15.696 2.2752e+11
    15.708 2.2813e+11
    15.721 2.2875e+11
    15.733 2.2936e+11
    15.746 2.2998e+11
    15.758 2.3059e+11
     15.77 2.3121e+11
    15.783 2.3183e+11
    15.795 2.3244e+11
    15.808 2.3306e+11
     15.82 2.3368e+11
    15.832  2.343e+11
    15.845 2.3492e+11
    15.857 2.3554e+11
     15.87 2.3617e+11
    15.882 2.3679e+11
    15.894 2.3741e+11
    15.907 2.3804e+11
    15.919 2.3866e+11
    15.932 2.3929e+11
    15.944 2.3992e+11
    15.956 2.4055e+11
    15.969 2.4118e+11
    15.981 2.4181e+11
    15.994 2.4244e+11
    16.006 2.4307e+11
    16.018  2.437e+11
    16.031 2.4434e+11
    16.043 2.4497e+11
    16.056 2.4561e+11
    16.068 2.4624e+11
     16.08 2.4688e+11
    16.093 2.4752e+11
    16.105 2.4815e+11
    16.118 2.4879e+11
     16.13 2.4943e+11
    16.142 2.5007e+11
    16.155 2.5072e+11
    16.167 2.5136e+11
     16.18   2.52e+11
    16.192 2.5264e+11
    16.204 2.5329e+11
    16.217 2.5393e+11
    16.229 2.5458e+11
    16.242 2.5523e+11
    16.254 2.5588e+11
    16.266 2.5652e+11
    16.279 2.5717e+11
    16.291 2.5782e+11
    16.304 2.5848e+11
    16.316 2.5913e+11
    16.328 2.5978e+11
    16.341 2.6043e+11
    16.353 2.6109e+11
    16.366 2.6174e+11
    16.378  2.624e+11
     16.39 2.6306e+11
    16.403 2.6371e+11
    16.415 2.6437e+11
    16.428 2.6503e+11
     16.44 2.6569e+11
    16.452 2.6635e+11
    16.465 2.6701e+11
    16.477 2.6767e+11
     16.49 2.6834e+11
    16.502   2.69e+11
    16.514 2.6967e+11
    16.527 2.7033e+11
    16.539   2.71e+11
    16.552 2.7166e+11
    16.564 2.7234e+11
    16.576   2.73e+11
    16.589 2.7367e+11
    16.601 2.7434e+11
    16.613 2.7501e+11
    16.626 2.7569e+11
    16.638 2.7636e+11
    16.651 2.7703e+11
    16.663 2.7771e+11
    16.675 2.7838e+11
    16.688 2.7906e+11
      16.7 2.7973e+11
    16.713 2.8041e+11
    16.725 2.8109e+11
    16.737 2.8177e+11
     16.75 2.8245e+11
    16.762 2.8313e+11
    16.775 2.8381e+11
    16.787 2.8449e+11
    16.799 2.8517e+11
    16.812 2.8586e+11
    16.824 2.8654e+11
    16.837 2.8723e+11
    16.849 2.8791e+11
    16.861  2.886e+11
    16.874 2.8929e+11
    16.886 2.8997e+11
    16.899 2.9066e+11
    16.911 2.9135e+11
    16.923 2.9204e+11
    16.936 2.9273e+11
    16.948 2.9343e+11
    16.961 2.9412e+11
    16.973 2.9481e+11
    16.985 2.9551e+11
    16.998  2.962e+11
     17.01  2.969e+11
    17.023 2.9759e+11
    17.035 2.9829e+11
    17.047 2.9899e+11
     17.06 2.9969e+11
    17.072 3.0039e+11
    17.085 3.0109e+11
    17.097 3.0179e+11
    17.109 3.0249e+11
    17.122  3.032e+11
    17.134  3.039e+11
    17.147  3.046e+11
    17.159 3.0531e+11
    17.171 3.0601e+11
    17.184 3.0672e+11
    17.196 3.0743e+11
    17.209 3.0814e+11
    17.221 3.0884e+11
    17.233 3.0955e+11
    17.246 3.1026e+11
    17.258 3.1097e+11
    17.271 3.1169e+11
    17.283  3.124e+11
    17.295 3.1311e+11
    17.308 3.1383e+11
     17.32 3.1454e+11
    17.333 3.1526e+11
    17.345 3.1598e+11
    17.357 3.1669e+11
     17.37 3.1741e+11
    17.382 3.1813e+11
    17.395 3.1885e+11
    17.407 3.1957e+11
    17.419 3.2029e+11
    17.432 3.2101e+11
    17.444 3.2173e+11
    17.457 3.2246e+11
    17.469 3.2318e+11
    17.481 3.2391e+11
    17.494 3.2463e+11
    17.506 3.2536e+11
    17.519 3.2608e+11
    17.531 3.2681e+11
    17.543 3.2754e+11
    17.556 3.2827e+11
    17.568   3.29e+11
    17.581 3.2973e+11
    17.593 3.3046e+11
    17.605 3.3119e+11
    17.618 3.3193e+11
     17.63 3.3266e+11
    17.643 3.3339e+11
    17.655 3.3413e+11
    17.667 3.3486e+11
     17.68  3.356e+11
    17.692 3.3634e+11
    17.705 3.3708e+11
    17.717 3.3781e+11
    17.729 3.3855e+11
    17.742 3.3929e+11
    17.754 3.4003e+11
    17.767 3.4078e+11
    17.779 3.4152e+11
    17.791 3.4226e+11
    17.804 3.4301e+11
    17.816 3.4375e+11
    17.829  3.445e+11
    17.841 3.4524e+11
    17.853 3.4599e+11
    17.866 3.4674e+11
    17.878 3.4748e+11
    17.891 3.4823e+11
    17.903 3.4898e+11
    17.915 3.4973e+11
    17.928 3.5048e+11
     17.94 3.5124e+11
    17.952 3.5199e+11
    17.965 3.5274e+11
    17.977  3.535e+11
     17.99 3.5425e+11
    18.002   3.55e+11
    18.014 3.5576e+11
    18.027 3.5652e+11
    18.039 3.5727e+11
    18.052 3.5803e+11
    18.064 3.5879e+11
    18.076 3.5955e+11
    18.089 3.6031e+11
    18.101 3.6107e+11
    18.114 3.6183e+11
    18.126  3.626e+11
    18.138 3.6336e+11
    18.151 3.6412e+11
    18.163 3.6489e+11
    18.176 3.6565e+11
    18.188 3.6642e+11
      18.2 3.6719e+11
    18.213 3.6795e+11
    18.225 3.6872e+11
    18.238 3.6949e+11
     18.25 3.7026e+11
    18.262 3.7103e+11
    18.275  3.718e+11
    18.287 3.7257e+11
      18.3 3.7335e+11
    18.312 3.7412e+11
    18.324 3.7489e+11
    18.337 3.7567e+11
    18.349 3.7644e+11
    18.362 3.7722e+11
    18.374   3.78e+11
    18.386 3.7877e+11
    18.399 3.7955e+11
    18.411 3.8033e+11
    18.424 3.8111e+11
    18.436 3.8189e+11
    18.448 3.8267e+11
    18.461 3.8345e+11
    18.473 3.8423e+11
    18.486 3.8502e+11
    18.498  3.858e+11
     18.51 3.8658e+11
    18.523 3.8737e+11
    18.535 3.8816e+11
    18.548 3.8894e+11
     18.56 3.8973e+11
    18.572 3.9052e+11
    18.585  3.913e+11
    18.597 3.9209e+11
     18.61 3.9288e+11
    18.622 3.9367e+11
    18.634 3.9446e+11
    18.647 3.9526e+11
    18.659 3.9605e+11
    18.672 3.9684e+11
    18.684 3.9764e+11
    18.696 3.9843e+11
    18.709 3.9922e+11
    18.721 4.0002e+11
    18.734 4.0082e+11
    18.746 4.0162e+11
    18.758 4.0241e+11
    18.771 4.0321e+11
    18.783 4.0401e+11
    18.796 4.0481e+11
    18.808 4.0561e+11
     18.82 4.0641e+11
    18.833 4.0721e+11
    18.845 4.0802e+11
    18.858 4.0882e+11
     18.87 4.0962e+11
    18.882 4.1043e+11
    18.895 4.1124e+11
    18.907 4.1204e+11
     18.92 4.1285e+11
    18.932 4.1365e+11
    18.944 4.1446e+11
    18.957 4.1527e+11
    18.969 4.1608e+11
    18.982 4.1689e+11
    18.994  4.177e+11
    19.006 4.1851e+11
    19.019 4.1932e+11
    19.031 4.2014e+11
    19.044 4.2095e+11
    19.056 4.2176e+11
    19.068 4.2258e+11
    19.081 4.2339e+11
    19.093 4.2421e+11
    19.106 4.2503e+11
    19.118 4.2584e+11
     19.13 4.2666e+11
    19.143 4.2748e+11
    19.155  4.283e+11
    19.168 4.2912e+11
     19.18 4.2994e+11
    19.192 4.3076e+11
    19.205 4.3158e+11
    19.217  4.324e+11
     19.23 4.3323e+11
    19.242 4.3405e+11
    19.254 4.3488e+11
    19.267  4.357e+11
    19.279 4.3653e+11
    19.291 4.3735e+11
    19.304 4.3818e+11
    19.316 4.3901e+11
    19.329 4.3984e+11
    19.341 4.4067e+11
    19.353 4.4149e+11
    19.366 4.4232e+11
    19.378 4.4315e+11
    19.391 4.4399e+11
    19.403 4.4482e+11
    19.415 4.4565e+11
    19.428 4.4649e+11
     19.44 4.4732e+11
    19.453 4.4815e+11
    19.465 4.4899e+11
    19.477 4.4982e+11
     19.49 4.5066e+11
    19.502  4.515e+11
    19.515 4.5234e+11
    19.527 4.5318e+11
    19.539 4.5401e+11
    19.552 4.5486e+11
    19.564 4.5569e+11
    19.577 4.5654e+11
    19.589 4.5738e+11
    19.601 4.5822e+11
    19.614 4.5906e+11
    19.626 4.5991e+11
    19.639 4.6075e+11
    19.651 4.6159e+11
    19.663 4.6244e+11
    19.676 4.6329e+11
    19.688 4.6413e+11
    19.701 4.6498e+11
    19.713 4.6583e+11
    19.725 4.6668e+11
    19.738 4.6753e+11
     19.75 4.6838e+11
    19.763 4.6923e+11
    19.775 4.7008e+11
    19.787 4.7093e+11
      19.8 4.7178e+11
    19.812 4.7263e+11
    19.825 4.7349e+11
    19.837 4.7434e+11
    19.849  4.752e+11
    19.862 4.7605e+11
    19.874 4.7691e+11
    19.887 4.7777e+11
    19.899 4.7862e+11
    19.911 4.7948e+11
    19.924 4.8034e+11
    19.936  4.812e+11
    19.949 4.8206e+11
    19.961 4.8292e+11
    19.973 4.8378e+11
    19.986 4.8464e+11
    19.998  4.855e+11
    20.011 4.8637e+11
    20.023 4.8723e+11
    20.035 4.8809e+11
    20.048 4.8896e+11
     20.06 4.8982e+11
    20.073 4.9069e+11
    20.085 4.9155e+11
    20.097 4.9242e+11
     20.11 4.9329e+11
    20.122 4.9416e+11
    20.135 4.9503e+11
    20.147 4.9589e+11
    20.159 4.9676e+11
    20.172 4.9764e+11
    20.184  4.985e+11
    20.197 4.9938e+11
    20.209 5.0025e+11
    20.221 5.0112e+11
    20.234   5.02e+11
    20.246 5.0287e+11
    20.259 5.0375e+11
    20.271 5.0462e+11
    20.283  5.055e+11
    20.296 5.0637e+11
    20.308 5.0725e+11
    20.321 5.0813e+11
    20.333 5.0901e+11
    20.345 5.0989e+11
    20.358 5.1077e+11
     20.37 5.1164e+11
    20.383 5.1252e+11
    20.395  5.134e+11
    20.407 5.1429e+11
     20.42 5.1517e+11
    20.432 5.1605e+11
    20.445 5.1694e+11
    20.457 5.1782e+11
    20.469 5.1871e+11
    20.482 5.1959e+11
    20.494 5.2048e+11
    20.507 5.2136e+11
    20.519 5.2225e+11
    20.531 5.2314e+11
    20.544 5.2403e+11
    20.556 5.2491e+11
    20.569  5.258e+11
    20.581 5.2669e+11
    20.593 5.2759e+11
    20.606 5.2848e+11
    20.618 5.2937e+11
     20.63 5.3026e+11
    20.643 5.3115e+11
    20.655 5.3205e+11
    20.668 5.3294e+11
     20.68 5.3383e+11
    20.692 5.3473e+11
    20.705 5.3562e+11
    20.717 5.3652e+11
     20.73 5.3742e+11
    20.742 5.3831e+11
    20.754 5.3921e+11
    20.767 5.4011e+11
    20.779 5.4101e+11
    20.792 5.4191e+11
    20.804 5.4281e+11
    20.816 5.4371e+11
    20.829 5.4461e+11
    20.841 5.4551e+11
    20.854 5.4642e+11
    20.866 5.4732e+11
    20.878 5.4822e+11
    20.891 5.4913e+11
    20.903 5.5003e+11
    20.916 5.5094e+11
    20.928 5.5184e+11
     20.94 5.5275e+11
    20.953 5.5366e+11
    20.965 5.5456e+11
    20.978 5.5547e+11
     20.99 5.5638e+11
    21.002 5.5729e+11
    21.015  5.582e+11
    21.027 5.5911e+11
     21.04 5.6002e+11
    21.052 5.6093e+11
    21.064 5.6184e+11
    21.077 5.6275e+11
    21.089 5.6367e+11
    21.102 5.6458e+11
    21.114  5.655e+11
    21.126 5.6641e+11
    21.139 5.6733e+11
    21.151 5.6824e+11
    21.164 5.6916e+11
    21.176 5.7007e+11
    21.188 5.7099e+11
    21.201 5.7191e+11
    21.213 5.7283e+11
    21.226 5.7374e+11
    21.238 5.7466e+11
     21.25 5.7558e+11
    21.263  5.765e+11
    21.275 5.7742e+11
    21.288 5.7835e+11
      21.3 5.7927e+11
    21.312 5.8019e+11
    21.325 5.8111e+11
    21.337 5.8204e+11
     21.35 5.8296e+11
    21.362 5.8389e+11
    21.374 5.8481e+11
    21.387 5.8574e+11
    21.399 5.8666e+11
    21.412 5.8759e+11
    21.424 5.8852e+11
    21.436 5.8945e+11
    21.449 5.9038e+11
    21.461  5.913e+11
    21.474 5.9224e+11
    21.486 5.9316e+11
    21.498  5.941e+11
    21.511 5.9502e+11
    21.523 5.9596e+11
    21.536 5.9689e+11
    21.548 5.9782e+11
     21.56 5.9876e+11
    21.573 5.9969e+11
    21.585 6.0062e+11
    21.598 6.0156e+11
     21.61 6.0249e+11
    21.622 6.0343e+11
    21.635 6.0436e+11
    21.647  6.053e+11
     21.66 6.0624e+11
    21.672 6.0718e+11
    21.684 6.0811e+11
    21.697 6.0905e+11
    21.709 6.0999e+11
    21.722 6.1093e+11
    21.734 6.1187e+11
    21.746 6.1281e+11
    21.759 6.1376e+11
    21.771  6.147e+11
    21.784 6.1564e+11
    21.796 6.1658e+11
    21.808 6.1753e+11
    21.821 6.1847e+11
    21.833 6.1941e+11
    21.846 6.2036e+11
    21.858  6.213e+11
     21.87 6.2225e+11
    21.883  6.232e+11
    21.895 6.2415e+11
    21.908 6.2509e+11
     21.92 6.2604e+11
    21.932 6.2699e+11
    21.945 6.2794e+11
    21.957 6.2889e+11
    21.969 6.2984e+11
    21.982 6.3079e+11
    21.994 6.3174e+11
    22.007 6.3269e+11
    22.019 6.3364e+11
    22.031  6.346e+11
    22.044 6.3555e+11
    22.056  6.365e+11
    22.069 6.3745e+11
    22.081 6.3841e+11
    22.093 6.3936e+11
    22.106 6.4032e+11
    22.118 6.4128e+11
    22.131 6.4223e+11
    22.143 6.4319e+11
    22.155 6.4414e+11
    22.168  6.451e+11
     22.18 6.4606e+11
    22.193 6.4702e+11
    22.205 6.4798e+11
    22.217 6.4894e+11
     22.23  6.499e+11
    22.242 6.5086e+11
    22.255 6.5182e+11
    22.267 6.5278e+11
    22.279 6.5375e+11
    22.292 6.5471e+11
    22.304 6.5567e+11
    22.317 6.5664e+11
    22.329  6.576e+11
    22.341 6.5857e+11
    22.354 6.5953e+11
    22.366  6.605e+11
    22.379 6.6146e+11
    22.391 6.6243e+11
    22.403  6.634e+11
    22.416 6.6436e+11
    22.428 6.6533e+11
    22.441  6.663e+11
    22.453 6.6727e+11
    22.465 6.6824e+11
    22.478 6.6921e+11
     22.49 6.7018e+11
    22.503 6.7115e+11
    22.515 6.7212e+11
    22.527 6.7309e+11
     22.54 6.7406e+11
    22.552 6.7504e+11
    22.565 6.7601e+11
    22.577 6.7698e+11
    22.589 6.7796e+11
    22.602 6.7893e+11
    22.614 6.7991e+11
    22.627 6.8088e+11
    22.639 6.8186e+11
    22.651 6.8284e+11
    22.664 6.8381e+11
    22.676 6.8479e+11
    22.689 6.8577e+11
    22.701 6.8675e+11
    22.713 6.8772e+11
    22.726  6.887e+11
    22.738 6.8968e+11
    22.751 6.9067e+11
    22.763 6.9164e+11
    22.775 6.9263e+11
    22.788  6.936e+11
      22.8 6.9459e+11
    22.813 6.9557e+11
    22.825 6.9655e+11
    22.837 6.9754e+11
     22.85 6.9852e+11
    22.862  6.995e+11
    22.875 7.0049e+11
    22.887 7.0147e+11
    22.899 7.0246e+11
    22.912 7.0344e+11
    22.924 7.0443e+11
    22.937 7.0542e+11
    22.949 7.0641e+11
    22.961 7.0739e+11
    22.974 7.0838e+11
    22.986 7.0937e+11
    22.999 7.1036e+11
    23.011 7.1135e+11
    23.023 7.1234e+11
    23.036 7.1333e+11
    23.048 7.1432e+11
    23.061 7.1531e+11
    23.073  7.163e+11
    23.085  7.173e+11
    23.098 7.1829e+11
     23.11 7.1928e+11
    23.123 7.2027e+11
    23.135 7.2127e+11
    23.147 7.2226e+11
     23.16 7.2326e+11
    23.172 7.2425e+11
    23.185 7.2525e+11
    23.197 7.2625e+11
    23.209 7.2724e+11
    23.222 7.2824e+11
    23.234 7.2923e+11
    23.247 7.3023e+11
    23.259 7.3123e+11
    23.271 7.3223e+11
    23.284 7.3323e+11
    23.296 7.3423e+11
    23.308 7.3523e+11
    23.321 7.3623e+11
    23.333 7.3723e+11
    23.346 7.3823e+11
    23.358 7.3923e+11
     23.37 7.4023e+11
    23.383 7.4124e+11
    23.395 7.4224e+11
    23.408 7.4324e+11
     23.42 7.4425e+11
    23.432 7.4525e+11
    23.445 7.4626e+11
    23.457 7.4726e+11
     23.47 7.4827e+11
    23.482 7.4927e+11
    23.494 7.5028e+11
    23.507 7.5128e+11
    23.519 7.5229e+11
    23.532  7.533e+11
    23.544 7.5431e+11
    23.556 7.5532e+11
    23.569 7.5632e+11
    23.581 7.5733e+11
    23.594 7.5834e+11
    23.606 7.5935e+11
    23.618 7.6036e+11
    23.631 7.6138e+11
    23.643 7.6238e+11
    23.656  7.634e+11
    23.668 7.6441e+11
     23.68 7.6542e+11
    23.693 7.6643e+11
    23.705 7.6745e+11
    23.718 7.6846e+11
     23.73 7.6947e+11
    23.742 7.7049e+11
    23.755  7.715e+11
    23.767 7.7252e+11
     23.78 7.7354e+11
    23.792 7.7455e+11
    23.804 7.7557e+11
    23.817 7.7659e+11
    23.829  7.776e+11
    23.842 7.7862e+11
    23.854 7.7964e+11
    23.866 7.8066e+11
    23.879 7.8168e+11
    23.891  7.827e+11
    23.904 7.8372e+11
    23.916 7.8474e+11
    23.928 7.8576e+11
    23.941 7.8678e+11
    23.953  7.878e+11
    23.966 7.8882e+11
    23.978 7.8984e+11
     23.99 7.9087e+11
    24.003 7.9189e+11
    24.015 7.9291e+11
    24.028 7.9394e+11
     24.04 7.9496e+11
    24.052 7.9598e+11
    24.065 7.9701e+11
    24.077 7.9804e+11
     24.09 7.9906e+11
    24.102 8.0009e+11
    24.114 8.0112e+11
    24.127 8.0214e+11
    24.139 8.0316e+11
    24.152  8.042e+11
    24.164 8.0522e+11
    24.176 8.0625e+11
    24.189 8.0728e+11
    24.201 8.0831e+11
    24.214 8.0934e+11
    24.226 8.1037e+11
    24.238  8.114e+11
    24.251 8.1243e+11
    24.263 8.1346e+11
    24.276 8.1449e+11
    24.288 8.1552e+11
      24.3 8.1656e+11
    24.313 8.1759e+11
    24.325 8.1862e+11
    24.338 8.1966e+11
     24.35 8.2069e+11
    24.362 8.2172e+11
    24.375 8.2275e+11
    24.387 8.2379e+11
      24.4 8.2483e+11
    24.412 8.2586e+11
    24.424  8.269e+11
    24.437 8.2793e+11
    24.449 8.2897e+11
    24.462 8.3001e+11
    24.474 8.3105e+11
    24.486 8.3208e+11
    24.499 8.3312e+11
    24.511 8.3416e+11
    24.524  8.352e+11
    24.536 8.3624e+11
    24.548 8.3728e+11
    24.561 8.3832e+11
    24.573 8.3936e+11
    24.585  8.404e+11
    24.598 8.4144e+11
     24.61 8.4248e+11
    24.623 8.4353e+11
    24.635 8.4457e+11
    24.647  8.456e+11
     24.66 8.4665e+11
    24.672 8.4769e+11
    24.685 8.4873e+11
    24.697 8.4978e+11
    24.709 8.5083e+11
    24.722 8.5187e+11
    24.734 8.5292e+11
    24.747 8.5396e+11
    24.759 8.5501e+11
    24.771 8.5605e+11
    24.784  8.571e+11
    24.796 8.5815e+11
    24.809 8.5919e+11
    24.821 8.6024e+11
    24.833 8.6129e+11
    24.846 8.6234e+11
    24.858 8.6339e+11
    24.871 8.6444e+11
    24.883 8.6549e+11
    24.895 8.6653e+11
    24.908 8.6758e+11
     24.92 8.6863e+11
    24.933 8.6968e+11
    24.945 8.7073e+11
    24.957 8.7179e+11
     24.97 8.7284e+11
    24.982 8.7389e+11
    24.995 8.7494e+11
    25.007   8.76e+11
    25.019 8.7705e+11
    25.032 8.7811e+11
    25.044 8.7916e+11
    25.057 8.8021e+11
    25.069 8.8127e+11
    25.081 8.8232e+11
    25.094 8.8337e+11
    25.106 8.8443e+11
    25.119 8.8549e+11
    25.131 8.8654e+11
    25.143  8.876e+11
    25.156 8.8866e+11
    25.168 8.8971e+11
    25.181 8.9077e+11
    25.193 8.9183e+11
    25.205 8.9289e+11
    25.218 8.9395e+11
     25.23   8.95e+11
    25.243 8.9606e+11
    25.255 8.9712e+11
    25.267 8.9818e+11
     25.28 8.9924e+11
    25.292 9.0031e+11
    25.305 9.0137e+11
    25.317 9.0243e+11
    25.329 9.0349e+11
    25.342 9.0455e+11
    25.354 9.0561e+11
    25.367 9.0668e+11
    25.379 9.0774e+11
    25.391  9.088e+11
    25.404 9.0986e+11
    25.416 9.1093e+11
    25.429 9.1199e+11
    25.441 9.1306e+11
    25.453 9.1412e+11
    25.466 9.1519e+11
    25.478 9.1625e+11
    25.491 9.1732e+11
    25.503 9.1838e+11
    25.515 9.1945e+11
    25.528 9.2052e+11
     25.54 9.2158e+11
    25.553 9.2265e+11
    25.565 9.2372e+11
    25.577 9.2479e+11
     25.59 9.2585e+11
    25.602 9.2692e+11
    25.615 9.2799e+11
    25.627 9.2906e+11
    25.639 9.3013e+11
    25.652 9.3121e+11
    25.664 9.3227e+11
    25.677 9.3335e+11
    25.689 9.3442e+11
    25.701 9.3548e+11
    25.714 9.3656e+11
    25.726 9.3763e+11
    25.739  9.387e+11
    25.751 9.3978e+11
    25.763 9.4084e+11
    25.776 9.4192e+11
    25.788 9.4299e+11
    25.801 9.4406e+11
    25.813 9.4514e+11
    25.825 9.4621e+11
    25.838 9.4729e+11
     25.85 9.4836e+11
    25.863 9.4944e+11
    25.875 9.5051e+11
    25.887 9.5159e+11
      25.9 9.5267e+11
    25.912 9.5374e+11
    25.924 9.5482e+11
    25.937  9.559e+11
    25.949 9.5697e+11
    25.962 9.5805e+11
    25.974 9.5913e+11
    25.986 9.6021e+11
    25.999 9.6129e+11
    26.011 9.6236e+11
    26.024 9.6344e+11
    26.036 9.6452e+11
    26.048  9.656e+11
    26.061 9.6668e+11
    26.073 9.6776e+11
    26.086 9.6885e+11
    26.098 9.6993e+11
     26.11 9.7101e+11
    26.123 9.7209e+11
    26.135 9.7317e+11
    26.148 9.7425e+11
     26.16 9.7533e+11
    26.172 9.7642e+11
    26.185  9.775e+11
    26.197 9.7858e+11
     26.21 9.7967e+11
    26.222 9.8075e+11
    26.234 9.8183e+11
    26.247 9.8292e+11
    26.259 9.8401e+11
    26.272 9.8509e+11
    26.284 9.8618e+11
    26.296 9.8726e+11
    26.309 9.8834e+11
    26.321 9.8943e+11
    26.334 9.9052e+11
    26.346 9.9161e+11
    26.358 9.9269e+11
    26.371 9.9378e+11
    26.383 9.9486e+11
    26.396 9.9596e+11
    26.408 9.9704e+11
     26.42 9.9813e+11
    26.433 9.9922e+11
    26.445 1.0003e+12
    26.458 1.0014e+12
     26.47 1.0025e+12
    26.482 1.0036e+12
    26.495 1.0047e+12
    26.507 1.0058e+12
     26.52 1.0068e+12
    26.532 1.0079e+12
    26.544  1.009e+12
    26.557 1.0101e+12
    26.569 1.0112e+12
    26.582 1.0123e+12
    26.594 1.0134e+12
    26.606 1.0145e+12
    26.619 1.0156e+12
    26.631 1.0167e+12
    26.644 1.0178e+12
    26.656 1.0189e+12
    26.668   1.02e+12
    26.681  1.021e+12
    26.693 1.0221e+12
    26.706 1.0232e+12
    26.718 1.0243e+12
     26.73 1.0254e+12
    26.743 1.0265e+12
    26.755 1.0276e+12
    26.768 1.0287e+12
     26.78 1.0298e+12
    26.792 1.0309e+12
    26.805  1.032e+12
    26.817 1.0331e+12
     26.83 1.0342e+12
    26.842 1.0353e+12
    26.854 1.0364e+12
    26.867 1.0375e+12
    26.879 1.0386e+12
    26.892 1.0397e+12
    26.904 1.0408e+12
    26.916 1.0419e+12
    26.929  1.043e+12
    26.941 1.0441e+12
    26.954 1.0452e+12
    26.966 1.0463e+12
    26.978 1.0474e+12
    26.991 1.0485e+12
    27.003 1.0496e+12
    27.016 1.0507e+12
    27.028 1.0518e+12
     27.04 1.0529e+12
    27.053  1.054e+12
    27.065 1.0551e+12
    27.078 1.0562e+12
     27.09 1.0573e+12
    27.102 1.0584e+12
    27.115 1.0595e+12
    27.127 1.0606e+12
     27.14 1.0617e+12
    27.152 1.0628e+12
    27.164 1.0639e+12
    27.177  1.065e+12
    27.189 1.0661e+12
    27.202 1.0672e+12
    27.214 1.0683e+12
    27.226 1.0695e+12
    27.239 1.0706e+12
    27.251 1.0717e+12
    27.263 1.0728e+12
    27.276 1.0739e+12
    27.288  1.075e+12
    27.301 1.0761e+12
    27.313 1.0772e+12
    27.325 1.0783e+12
    27.338 1.0794e+12
     27.35 1.0805e+12
    27.363 1.0816e+12
    27.375 1.0827e+12
    27.387 1.0839e+12
      27.4  1.085e+12
    27.412 1.0861e+12
    27.425 1.0872e+12
    27.437 1.0883e+12
    27.449 1.0894e+12
    27.462 1.0905e+12
    27.474 1.0916e+12
    27.487 1.0927e+12
    27.499 1.0938e+12
    27.511  1.095e+12
    27.524 1.0961e+12
    27.536 1.0972e+12
    27.549 1.0983e+12
    27.561 1.0994e+12
    27.573 1.1005e+12
    27.586 1.1016e+12
    27.598 1.1027e+12
    27.611 1.1039e+12
    27.623  1.105e+12
    27.635 1.1061e+12
    27.648 1.1072e+12
     27.66 1.1083e+12
    27.673 1.1094e+12
    27.685 1.1105e+12
    27.697 1.1116e+12
     27.71 1.1128e+12
    27.722 1.1139e+12
    27.735  1.115e+12
    27.747 1.1161e+12
    27.759 1.1172e+12
    27.772 1.1183e+12
    27.784 1.1195e+12
    27.797 1.1206e+12
    27.809 1.1217e+12
    27.821 1.1228e+12
    27.834 1.1239e+12
    27.846  1.125e+12
    27.859 1.1262e+12
    27.871 1.1273e+12
    27.883 1.1284e+12
    27.896 1.1295e+12
    27.908 1.1306e+12
    27.921 1.1317e+12
    27.933 1.1329e+12
    27.945  1.134e+12
    27.958 1.1351e+12
     27.97 1.1362e+12
    27.983 1.1373e+12
    27.995 1.1385e+12
    28.007 1.1396e+12
     28.02 1.1407e+12
    28.032 1.1418e+12
    28.045 1.1429e+12
    28.057 1.1441e+12
    28.069 1.1452e+12
    28.082 1.1463e+12
    28.094 1.1474e+12
    28.107 1.1486e+12
    28.119 1.1497e+12
    28.131 1.1508e+12
    28.144 1.1519e+12
    28.156  1.153e+12
    28.169 1.1542e+12
    28.181 1.1553e+12
    28.193 1.1564e+12
    28.206 1.1575e+12
    28.218 1.1587e+12
    28.231 1.1598e+12
    28.243 1.1609e+12
    28.255  1.162e+12
    28.268 1.1632e+12
     28.28 1.1643e+12
    28.293 1.1654e+12
    28.305 1.1665e+12
    28.317 1.1677e+12
     28.33 1.1688e+12
    28.342 1.1699e+12
    28.355  1.171e+12
    28.367 1.1722e+12
    28.379 1.1733e+12
    28.392 1.1744e+12
    28.404 1.1755e+12
    28.417 1.1767e+12
    28.429 1.1778e+12
    28.441 1.1789e+12
    28.454 1.1801e+12
    28.466 1.1812e+12
    28.479 1.1823e+12
    28.491 1.1834e+12
    28.503 1.1846e+12
    28.516 1.1857e+12
    28.528 1.1868e+12
    28.541  1.188e+12
    28.553 1.1891e+12
    28.565 1.1902e+12
    28.578 1.1913e+12
     28.59 1.1925e+12
    28.602 1.1936e+12
    28.615 1.1947e+12
    28.627 1.1959e+12
     28.64  1.197e+12
    28.652 1.1981e+12
    28.664 1.1993e+12
    28.677 1.2004e+12
    28.689 1.2015e+12
    28.702 1.2027e+12
    28.714 1.2038e+12
    28.726 1.2049e+12
    28.739 1.2061e+12
    28.751 1.2072e+12
    28.764 1.2083e+12
    28.776 1.2095e+12
    28.788 1.2106e+12
    28.801 1.2117e+12
    28.813 1.2128e+12
    28.826  1.214e+12
    28.838 1.2151e+12
     28.85 1.2163e+12
    28.863 1.2174e+12
    28.875 1.2185e+12
    28.888 1.2197e+12
      28.9 1.2208e+12
    28.912 1.2219e+12
    28.925 1.2231e+12
    28.937 1.2242e+12
     28.95 1.2253e+12
    28.962 1.2265e+12
    28.974 1.2276e+12
    28.987 1.2287e+12
    28.999 1.2299e+12
    29.012  1.231e+12
    29.024 1.2322e+12
    29.036 1.2333e+12
    29.049 1.2344e+12
    29.061 1.2356e+12
    29.074 1.2367e+12
    29.086 1.2378e+12
    29.098  1.239e+12
    29.111 1.2401e+12
    29.123 1.2412e+12
    29.136 1.2424e+12
    29.148 1.2435e+12
     29.16 1.2447e+12
    29.173 1.2458e+12
    29.185 1.2469e+12
    29.198 1.2481e+12
     29.21 1.2492e+12
    29.222 1.2504e+12
    29.235 1.2515e+12
    29.247 1.2526e+12
     29.26 1.2538e+12
    29.272 1.2549e+12
    29.284 1.2561e+12
    29.297 1.2572e+12
    29.309 1.2583e+12
    29.322 1.2595e+12
    29.334 1.2606e+12
    29.346 1.2618e+12
    29.359 1.2629e+12
    29.371  1.264e+12
    29.384 1.2652e+12
    29.396 1.2663e+12
    29.408 1.2675e+12
    29.421 1.2686e+12
    29.433 1.2698e+12
    29.446 1.2709e+12
    29.458  1.272e+12
     29.47 1.2732e+12
    29.483 1.2743e+12
    29.495 1.2755e+12
    29.508 1.2766e+12
     29.52 1.2778e+12
    29.532 1.2789e+12
    29.545   1.28e+12
    29.557 1.2812e+12
     29.57 1.2823e+12
    29.582 1.2835e+12
    29.594 1.2846e+12
    29.607 1.2858e+12
    29.619 1.2869e+12
    29.632  1.288e+12
    29.644 1.2892e+12
    29.656 1.2903e+12
    29.669 1.2915e+12
    29.681 1.2926e+12
    29.694 1.2938e+12
    29.706 1.2949e+12
    29.718 1.2961e+12
    29.731 1.2972e+12
    29.743 1.2984e+12
    29.756 1.2995e+12
    29.768 1.3007e+12
     29.78 1.3018e+12
    29.793  1.303e+12
    29.805 1.3041e+12
    29.818 1.3052e+12
     29.83 1.3064e+12
    29.842 1.3075e+12
    29.855 1.3087e+12
    29.867 1.3098e+12
     29.88  1.311e+12
    29.892 1.3121e+12
    29.904 1.3133e+12
    29.917 1.3144e+12
    29.929 1.3156e+12
    29.941 1.3167e+12
    29.954 1.3179e+12
    29.966  1.319e+12
    29.979 1.3202e+12
    29.991 1.3213e+12
    30.003 1.3225e+12
