RRKM rate, sf=0.970, S*=-16.96, E0=0.62 and Delta=0.14
   En (eV)    k (s-1)
         0          0
  0.012398          0
  0.024796          0
  0.037194          0
  0.049593          0
  0.061991          0
  0.074389          0
  0.086787          0
  0.099185          0
   0.11158          0
   0.12398          0
   0.13638          0
   0.14878          0
   0.16118          0
   0.17357          0
   0.18597          0
   0.19837          0
   0.21077          0
   0.22317          0
   0.23556          0
   0.24796          0
   0.26036          0
   0.27276          0
   0.28516          0
   0.29756          0
   0.30995          0
   0.32235          0
   0.33475          0
   0.34715          0
   0.35955          0
   0.37194          0
   0.38434          0
   0.39674          0
   0.40914          0
   0.42154          0
   0.43393          0
   0.44633          0
   0.45873          0
   0.47113          0
   0.48353          0
   0.49593          0
   0.50832          0
   0.52072          0
   0.53312          0
   0.54552          0
   0.55792          0
   0.57031          0
   0.58271          0
   0.59511          0
   0.60751          0
   0.61991     946.99
    0.6323     2137.1
    0.6447     4834.4
    0.6571       8120
    0.6695      13226
    0.6819      19850
    0.6943      28965
   0.70669      41059
   0.71909      56643
   0.73149      76597
   0.74389 1.0136e+05
   0.75629 1.3199e+05
   0.76868 1.6926e+05
   0.78108 2.1436e+05
   0.79348 2.6826e+05
   0.80588 3.3238e+05
   0.81828 4.0781e+05
   0.83067 4.9615e+05
   0.84307 5.9874e+05
   0.85547 7.1732e+05
   0.86787 8.5357e+05
   0.88027 1.0093e+06
   0.89267 1.1866e+06
   0.90506 1.3875e+06
   0.91746 1.6141e+06
   0.92986 1.8688e+06
   0.94226 2.1539e+06
   0.95466 2.4721e+06
   0.96705  2.826e+06
   0.97945 3.2184e+06
   0.99185 3.6522e+06
    1.0042 4.1305e+06
    1.0166 4.6564e+06
     1.029 5.2332e+06
    1.0414 5.8643e+06
    1.0538 6.5532e+06
    1.0662 7.3037e+06
    1.0786 8.1195e+06
     1.091 9.0045e+06
    1.1034 9.9627e+06
    1.1158 1.0998e+07
    1.1282 1.2116e+07
    1.1406 1.3319e+07
     1.153 1.4613e+07
    1.1654 1.6003e+07
    1.1778 1.7492e+07
    1.1902 1.9087e+07
    1.2026 2.0791e+07
     1.215 2.2611e+07
    1.2274  2.455e+07
    1.2398 2.6616e+07
    1.2522 2.8813e+07
    1.2646 3.1146e+07
     1.277 3.3622e+07
    1.2894 3.6246e+07
    1.3018 3.9025e+07
    1.3142 4.1963e+07
    1.3266 4.5068e+07
     1.339 4.8346e+07
    1.3514 5.1802e+07
    1.3638 5.5445e+07
    1.3762 5.9278e+07
    1.3886 6.3311e+07
     1.401 6.7548e+07
    1.4134 7.1998e+07
    1.4258 7.6667e+07
    1.4382 8.1562e+07
    1.4506  8.669e+07
     1.463 9.2059e+07
    1.4754 9.7674e+07
    1.4878 1.0355e+08
    1.5002 1.0968e+08
    1.5126 1.1608e+08
     1.525 1.2276e+08
    1.5374 1.2973e+08
    1.5498 1.3699e+08
    1.5622 1.4455e+08
    1.5746 1.5241e+08
     1.587  1.606e+08
    1.5994 1.6911e+08
    1.6118 1.7795e+08
    1.6242 1.8713e+08
    1.6366 1.9667e+08
     1.649 2.0656e+08
    1.6613 2.1681e+08
    1.6737 2.2744e+08
    1.6861 2.3845e+08
    1.6985 2.4985e+08
    1.7109 2.6166e+08
    1.7233 2.7387e+08
    1.7357 2.8649e+08
    1.7481 2.9955e+08
    1.7605 3.1303e+08
    1.7729 3.2696e+08
    1.7853 3.4134e+08
    1.7977 3.5619e+08
    1.8101  3.715e+08
    1.8225 3.8729e+08
    1.8349 4.0356e+08
    1.8473 4.2034e+08
    1.8597 4.3762e+08
    1.8721 4.5541e+08
    1.8845 4.7373e+08
    1.8969 4.9257e+08
    1.9093 5.1196e+08
    1.9217 5.3191e+08
    1.9341 5.5241e+08
    1.9465 5.7348e+08
    1.9589 5.9513e+08
    1.9713 6.1736e+08
    1.9837  6.402e+08
    1.9961 6.6364e+08
    2.0085 6.8769e+08
    2.0209 7.1237e+08
    2.0333 7.3769e+08
    2.0457 7.6364e+08
    2.0581 7.9025e+08
    2.0705 8.1752e+08
    2.0829 8.4546e+08
    2.0953 8.7408e+08
    2.1077 9.0339e+08
    2.1201  9.334e+08
    2.1325 9.6412e+08
    2.1449 9.9555e+08
    2.1573 1.0277e+09
    2.1697 1.0606e+09
    2.1821 1.0942e+09
    2.1945 1.1287e+09
    2.2069 1.1638e+09
    2.2193 1.1997e+09
    2.2317 1.2365e+09
    2.2441  1.274e+09
    2.2565 1.3123e+09
    2.2689 1.3514e+09
    2.2813 1.3913e+09
    2.2937 1.4321e+09
    2.3061 1.4737e+09
    2.3185 1.5161e+09
    2.3308 1.5594e+09
    2.3432 1.6036e+09
    2.3556 1.6487e+09
     2.368 1.6946e+09
    2.3804 1.7414e+09
    2.3928 1.7891e+09
    2.4052 1.8378e+09
    2.4176 1.8873e+09
      2.43 1.9378e+09
    2.4424 1.9892e+09
    2.4548 2.0416e+09
    2.4672 2.0949e+09
    2.4796 2.1492e+09
     2.492 2.2044e+09
    2.5044 2.2606e+09
    2.5168 2.3179e+09
    2.5292 2.3761e+09
    2.5416 2.4353e+09
     2.554 2.4956e+09
    2.5664 2.5568e+09
    2.5788 2.6191e+09
    2.5912 2.6825e+09
    2.6036 2.7469e+09
     2.616 2.8123e+09
    2.6284 2.8788e+09
    2.6408 2.9464e+09
    2.6532 3.0151e+09
    2.6656 3.0849e+09
     2.678 3.1558e+09
    2.6904 3.2278e+09
    2.7028 3.3009e+09
    2.7152 3.3751e+09
    2.7276 3.4505e+09
      2.74 3.5269e+09
    2.7524 3.6046e+09
    2.7648 3.6834e+09
    2.7772 3.7634e+09
    2.7896 3.8445e+09
     2.802 3.9269e+09
    2.8144 4.0104e+09
    2.8268 4.0951e+09
    2.8392 4.1811e+09
    2.8516 4.2682e+09
     2.864 4.3565e+09
    2.8764 4.4462e+09
    2.8888  4.537e+09
    2.9012  4.629e+09
    2.9136 4.7224e+09
     2.926  4.817e+09
    2.9384 4.9128e+09
    2.9508 5.0099e+09
    2.9632 5.1083e+09
    2.9756  5.208e+09
     2.988  5.309e+09
    3.0003 5.4113e+09
    3.0127 5.5149e+09
    3.0251 5.6198e+09
    3.0375 5.7261e+09
    3.0499 5.8337e+09
    3.0623 5.9426e+09
    3.0747 6.0529e+09
    3.0871 6.1645e+09
    3.0995 6.2775e+09
    3.1119 6.3918e+09
    3.1243 6.5076e+09
    3.1367 6.6247e+09
    3.1491 6.7431e+09
    3.1615  6.863e+09
    3.1739 6.9843e+09
    3.1863  7.107e+09
    3.1987 7.2311e+09
    3.2111 7.3566e+09
    3.2235 7.4836e+09
    3.2359  7.612e+09
    3.2483 7.7418e+09
    3.2607 7.8731e+09
    3.2731 8.0058e+09
    3.2855   8.14e+09
    3.2979 8.2756e+09
    3.3103 8.4127e+09
    3.3227 8.5513e+09
    3.3351 8.6914e+09
    3.3475 8.8329e+09
    3.3599  8.976e+09
    3.3723 9.1205e+09
    3.3847 9.2666e+09
    3.3971 9.4141e+09
    3.4095 9.5632e+09
    3.4219 9.7139e+09
    3.4343  9.866e+09
    3.4467  1.002e+10
    3.4591 1.0175e+10
    3.4715 1.0332e+10
    3.4839  1.049e+10
    3.4963  1.065e+10
    3.5087 1.0811e+10
    3.5211 1.0974e+10
    3.5335 1.1139e+10
    3.5459 1.1305e+10
    3.5583 1.1473e+10
    3.5707 1.1642e+10
    3.5831 1.1813e+10
    3.5955 1.1985e+10
    3.6079 1.2159e+10
    3.6203 1.2335e+10
    3.6327 1.2512e+10
    3.6451 1.2691e+10
    3.6574 1.2872e+10
    3.6698 1.3054e+10
    3.6822 1.3238e+10
    3.6946 1.3423e+10
     3.707 1.3611e+10
    3.7194 1.3799e+10
    3.7318  1.399e+10
    3.7442 1.4182e+10
    3.7566 1.4375e+10
     3.769 1.4571e+10
    3.7814 1.4768e+10
    3.7938 1.4967e+10
    3.8062 1.5167e+10
    3.8186 1.5369e+10
     3.831 1.5573e+10
    3.8434 1.5778e+10
    3.8558 1.5985e+10
    3.8682 1.6194e+10
    3.8806 1.6405e+10
     3.893 1.6617e+10
    3.9054 1.6831e+10
    3.9178 1.7046e+10
    3.9302 1.7264e+10
    3.9426 1.7483e+10
     3.955 1.7704e+10
    3.9674 1.7926e+10
    3.9798 1.8151e+10
    3.9922 1.8377e+10
    4.0046 1.8604e+10
     4.017 1.8834e+10
    4.0294 1.9065e+10
    4.0418 1.9298e+10
    4.0542 1.9533e+10
    4.0666 1.9769e+10
     4.079 2.0007e+10
    4.0914 2.0247e+10
    4.1038 2.0489e+10
    4.1162 2.0733e+10
    4.1286 2.0978e+10
     4.141 2.1225e+10
    4.1534 2.1474e+10
    4.1658 2.1725e+10
    4.1782 2.1977e+10
    4.1906 2.2231e+10
     4.203 2.2487e+10
    4.2154 2.2745e+10
    4.2278 2.3005e+10
    4.2402 2.3266e+10
    4.2526 2.3529e+10
     4.265 2.3794e+10
    4.2774 2.4061e+10
    4.2898  2.433e+10
    4.3022   2.46e+10
    4.3146 2.4872e+10
    4.3269 2.5146e+10
    4.3393 2.5422e+10
    4.3517   2.57e+10
    4.3641 2.5979e+10
    4.3765 2.6261e+10
    4.3889 2.6544e+10
    4.4013 2.6829e+10
    4.4137 2.7116e+10
    4.4261 2.7404e+10
    4.4385 2.7695e+10
    4.4509 2.7987e+10
    4.4633 2.8281e+10
    4.4757 2.8577e+10
    4.4881 2.8875e+10
    4.5005 2.9175e+10
    4.5129 2.9476e+10
    4.5253  2.978e+10
    4.5377 3.0085e+10
    4.5501 3.0392e+10
    4.5625 3.0701e+10
    4.5749 3.1012e+10
    4.5873 3.1325e+10
    4.5997 3.1639e+10
    4.6121 3.1955e+10
    4.6245 3.2274e+10
    4.6369 3.2594e+10
    4.6493 3.2916e+10
    4.6617  3.324e+10
    4.6741 3.3566e+10
    4.6865 3.3894e+10
    4.6989 3.4223e+10
    4.7113 3.4554e+10
    4.7237 3.4888e+10
    4.7361 3.5223e+10
    4.7485  3.556e+10
    4.7609 3.5899e+10
    4.7733  3.624e+10
    4.7857 3.6582e+10
    4.7981 3.6927e+10
    4.8105 3.7273e+10
    4.8229 3.7622e+10
    4.8353 3.7972e+10
    4.8477 3.8324e+10
    4.8601 3.8678e+10
    4.8725 3.9034e+10
    4.8849 3.9392e+10
    4.8973 3.9751e+10
    4.9097 4.0113e+10
    4.9221 4.0476e+10
    4.9345 4.0842e+10
    4.9469 4.1209e+10
    4.9593 4.1578e+10
    4.9717 4.1949e+10
     4.984 4.2322e+10
    4.9964 4.2697e+10
    5.0088 4.3074e+10
    5.0212 4.3452e+10
    5.0336 4.3833e+10
     5.046 4.4216e+10
    5.0584   4.46e+10
    5.0708 4.4986e+10
    5.0832 4.5374e+10
    5.0956 4.5764e+10
     5.108 4.6156e+10
    5.1204  4.655e+10
    5.1328 4.6946e+10
    5.1452 4.7344e+10
    5.1576 4.7743e+10
      5.17 4.8145e+10
    5.1824 4.8548e+10
    5.1948 4.8954e+10
    5.2072 4.9361e+10
    5.2196  4.977e+10
     5.232 5.0181e+10
    5.2444 5.0594e+10
    5.2568 5.1009e+10
    5.2692 5.1426e+10
    5.2816 5.1844e+10
     5.294 5.2265e+10
    5.3064 5.2688e+10
    5.3188 5.3112e+10
    5.3312 5.3539e+10
    5.3436 5.3967e+10
     5.356 5.4397e+10
    5.3684 5.4829e+10
    5.3808 5.5263e+10
    5.3932 5.5699e+10
    5.4056 5.6137e+10
     5.418 5.6576e+10
    5.4304 5.7018e+10
    5.4428 5.7462e+10
    5.4552 5.7907e+10
    5.4676 5.8354e+10
      5.48 5.8804e+10
    5.4924 5.9255e+10
    5.5048 5.9708e+10
    5.5172 6.0163e+10
    5.5296  6.062e+10
     5.542 6.1079e+10
    5.5544 6.1539e+10
    5.5668 6.2002e+10
    5.5792 6.2466e+10
    5.5916 6.2933e+10
     5.604 6.3401e+10
    5.6164 6.3871e+10
    5.6288 6.4343e+10
    5.6412 6.4817e+10
    5.6535 6.5293e+10
    5.6659 6.5771e+10
    5.6783 6.6251e+10
    5.6907 6.6732e+10
    5.7031 6.7216e+10
    5.7155 6.7701e+10
    5.7279 6.8189e+10
    5.7403 6.8678e+10
    5.7527 6.9169e+10
    5.7651 6.9662e+10
    5.7775 7.0157e+10
    5.7899 7.0653e+10
    5.8023 7.1152e+10
    5.8147 7.1653e+10
    5.8271 7.2155e+10
    5.8395  7.266e+10
    5.8519 7.3166e+10
    5.8643 7.3674e+10
    5.8767 7.4184e+10
    5.8891 7.4696e+10
    5.9015  7.521e+10
    5.9139 7.5726e+10
    5.9263 7.6243e+10
    5.9387 7.6762e+10
    5.9511 7.7284e+10
    5.9635 7.7807e+10
    5.9759 7.8332e+10
    5.9883 7.8859e+10
    6.0007 7.9388e+10
    6.0131 7.9919e+10
    6.0255 8.0451e+10
    6.0379 8.0986e+10
    6.0503 8.1522e+10
    6.0627  8.206e+10
    6.0751 8.2601e+10
    6.0875 8.3142e+10
    6.0999 8.3686e+10
    6.1123 8.4232e+10
    6.1247  8.478e+10
    6.1371 8.5329e+10
    6.1495  8.588e+10
    6.1619 8.6434e+10
    6.1743 8.6989e+10
    6.1867 8.7545e+10
    6.1991 8.8104e+10
    6.2115 8.8665e+10
    6.2239 8.9227e+10
    6.2363 8.9791e+10
    6.2487 9.0357e+10
    6.2611 9.0925e+10
    6.2735 9.1496e+10
    6.2859 9.2067e+10
    6.2983 9.2641e+10
    6.3107 9.3217e+10
     6.323 9.3793e+10
    6.3354 9.4373e+10
    6.3478 9.4954e+10
    6.3602 9.5537e+10
    6.3726 9.6121e+10
     6.385 9.6707e+10
    6.3974 9.7295e+10
    6.4098 9.7886e+10
    6.4222 9.8478e+10
    6.4346 9.9072e+10
     6.447 9.9667e+10
    6.4594 1.0026e+11
    6.4718 1.0086e+11
    6.4842 1.0147e+11
    6.4966 1.0207e+11
     6.509 1.0267e+11
    6.5214 1.0328e+11
    6.5338 1.0389e+11
    6.5462  1.045e+11
    6.5586 1.0511e+11
     6.571 1.0572e+11
    6.5834 1.0634e+11
    6.5958 1.0696e+11
    6.6082 1.0758e+11
    6.6206  1.082e+11
     6.633 1.0882e+11
    6.6454 1.0944e+11
    6.6578 1.1007e+11
    6.6702  1.107e+11
    6.6826 1.1133e+11
     6.695 1.1196e+11
    6.7074  1.126e+11
    6.7198 1.1323e+11
    6.7322 1.1387e+11
    6.7446 1.1451e+11
     6.757 1.1515e+11
    6.7694 1.1579e+11
    6.7818 1.1643e+11
    6.7942 1.1708e+11
    6.8066 1.1773e+11
     6.819 1.1838e+11
    6.8314 1.1903e+11
    6.8438 1.1968e+11
    6.8562 1.2034e+11
    6.8686 1.2099e+11
     6.881 1.2165e+11
    6.8934 1.2231e+11
    6.9058 1.2298e+11
    6.9182 1.2364e+11
    6.9306  1.243e+11
     6.943 1.2497e+11
    6.9554 1.2564e+11
    6.9678 1.2631e+11
    6.9801 1.2698e+11
    6.9925 1.2766e+11
    7.0049 1.2833e+11
    7.0173 1.2901e+11
    7.0297 1.2969e+11
    7.0421 1.3037e+11
    7.0545 1.3106e+11
    7.0669 1.3174e+11
    7.0793 1.3243e+11
    7.0917 1.3312e+11
    7.1041 1.3381e+11
    7.1165  1.345e+11
    7.1289 1.3519e+11
    7.1413 1.3589e+11
    7.1537 1.3658e+11
    7.1661 1.3728e+11
    7.1785 1.3798e+11
    7.1909 1.3868e+11
    7.2033 1.3939e+11
    7.2157 1.4009e+11
    7.2281  1.408e+11
    7.2405 1.4151e+11
    7.2529 1.4222e+11
    7.2653 1.4293e+11
    7.2777 1.4365e+11
    7.2901 1.4436e+11
    7.3025 1.4508e+11
    7.3149  1.458e+11
    7.3273 1.4652e+11
    7.3397 1.4724e+11
    7.3521 1.4797e+11
    7.3645 1.4869e+11
    7.3769 1.4942e+11
    7.3893 1.5015e+11
    7.4017 1.5088e+11
    7.4141 1.5161e+11
    7.4265 1.5235e+11
    7.4389 1.5308e+11
    7.4513 1.5382e+11
    7.4637 1.5456e+11
    7.4761  1.553e+11
    7.4885 1.5604e+11
    7.5009 1.5679e+11
    7.5133 1.5753e+11
    7.5257 1.5828e+11
    7.5381 1.5903e+11
    7.5505 1.5978e+11
    7.5629 1.6053e+11
    7.5753 1.6129e+11
    7.5877 1.6204e+11
    7.6001  1.628e+11
    7.6125 1.6356e+11
    7.6249 1.6432e+11
    7.6373 1.6508e+11
    7.6496 1.6584e+11
     7.662 1.6661e+11
    7.6744 1.6738e+11
    7.6868 1.6815e+11
    7.6992 1.6892e+11
    7.7116 1.6969e+11
     7.724 1.7046e+11
    7.7364 1.7124e+11
    7.7488 1.7201e+11
    7.7612 1.7279e+11
    7.7736 1.7357e+11
     7.786 1.7435e+11
    7.7984 1.7514e+11
    7.8108 1.7592e+11
    7.8232 1.7671e+11
    7.8356  1.775e+11
     7.848 1.7828e+11
    7.8604 1.7908e+11
    7.8728 1.7987e+11
    7.8852 1.8066e+11
    7.8976 1.8146e+11
      7.91 1.8226e+11
    7.9224 1.8306e+11
    7.9348 1.8386e+11
    7.9472 1.8466e+11
    7.9596 1.8546e+11
     7.972 1.8627e+11
    7.9844 1.8707e+11
    7.9968 1.8788e+11
    8.0092 1.8869e+11
    8.0216  1.895e+11
     8.034 1.9032e+11
    8.0464 1.9113e+11
    8.0588 1.9195e+11
    8.0712 1.9277e+11
    8.0836 1.9359e+11
     8.096 1.9441e+11
    8.1084 1.9523e+11
    8.1208 1.9605e+11
    8.1332 1.9688e+11
    8.1456 1.9771e+11
     8.158 1.9853e+11
    8.1704 1.9936e+11
    8.1828  2.002e+11
    8.1952 2.0103e+11
    8.2076 2.0186e+11
      8.22  2.027e+11
    8.2324 2.0354e+11
    8.2448 2.0438e+11
    8.2572 2.0522e+11
    8.2696 2.0606e+11
     8.282  2.069e+11
    8.2944 2.0775e+11
    8.3067  2.086e+11
    8.3191 2.0944e+11
    8.3315 2.1029e+11
    8.3439 2.1114e+11
    8.3563   2.12e+11
    8.3687 2.1285e+11
    8.3811 2.1371e+11
    8.3935 2.1456e+11
    8.4059 2.1542e+11
    8.4183 2.1628e+11
    8.4307 2.1714e+11
    8.4431 2.1801e+11
    8.4555 2.1887e+11
    8.4679 2.1974e+11
    8.4803  2.206e+11
    8.4927 2.2147e+11
    8.5051 2.2234e+11
    8.5175 2.2322e+11
    8.5299 2.2409e+11
    8.5423 2.2496e+11
    8.5547 2.2584e+11
    8.5671 2.2672e+11
    8.5795  2.276e+11
    8.5919 2.2848e+11
    8.6043 2.2936e+11
    8.6167 2.3024e+11
    8.6291 2.3113e+11
    8.6415 2.3201e+11
    8.6539  2.329e+11
    8.6663 2.3379e+11
    8.6787 2.3468e+11
    8.6911 2.3557e+11
    8.7035 2.3646e+11
    8.7159 2.3736e+11
    8.7283 2.3825e+11
    8.7407 2.3915e+11
    8.7531 2.4005e+11
    8.7655 2.4095e+11
    8.7779 2.4185e+11
    8.7903 2.4276e+11
    8.8027 2.4366e+11
    8.8151 2.4457e+11
    8.8275 2.4547e+11
    8.8399 2.4638e+11
    8.8523 2.4729e+11
    8.8647  2.482e+11
    8.8771 2.4912e+11
    8.8895 2.5003e+11
    8.9019 2.5095e+11
    8.9143 2.5186e+11
    8.9267 2.5278e+11
    8.9391  2.537e+11
    8.9515 2.5462e+11
    8.9639 2.5554e+11
    8.9762 2.5647e+11
    8.9886 2.5739e+11
     9.001 2.5832e+11
    9.0134 2.5925e+11
    9.0258 2.6018e+11
    9.0382 2.6111e+11
    9.0506 2.6204e+11
     9.063 2.6297e+11
    9.0754 2.6391e+11
    9.0878 2.6484e+11
    9.1002 2.6578e+11
    9.1126 2.6672e+11
     9.125 2.6766e+11
    9.1374  2.686e+11
    9.1498 2.6954e+11
    9.1622 2.7048e+11
    9.1746 2.7143e+11
     9.187 2.7237e+11
    9.1994 2.7332e+11
    9.2118 2.7427e+11
    9.2242 2.7522e+11
    9.2366 2.7617e+11
     9.249 2.7713e+11
    9.2614 2.7808e+11
    9.2738 2.7903e+11
    9.2862 2.7999e+11
    9.2986 2.8095e+11
     9.311 2.8191e+11
    9.3234 2.8287e+11
    9.3358 2.8383e+11
    9.3482 2.8479e+11
    9.3606 2.8576e+11
     9.373 2.8672e+11
    9.3854 2.8769e+11
    9.3978 2.8866e+11
    9.4102 2.8963e+11
    9.4226  2.906e+11
     9.435 2.9157e+11
    9.4474 2.9255e+11
    9.4598 2.9352e+11
    9.4722  2.945e+11
    9.4846 2.9547e+11
     9.497 2.9645e+11
    9.5094 2.9743e+11
    9.5218 2.9841e+11
    9.5342 2.9939e+11
    9.5466 3.0038e+11
     9.559 3.0136e+11
    9.5714 3.0235e+11
    9.5838 3.0333e+11
    9.5962 3.0432e+11
    9.6086 3.0531e+11
     9.621  3.063e+11
    9.6333 3.0729e+11
    9.6457 3.0829e+11
    9.6581 3.0928e+11
    9.6705 3.1028e+11
    9.6829 3.1127e+11
    9.6953 3.1227e+11
    9.7077 3.1327e+11
    9.7201 3.1427e+11
    9.7325 3.1527e+11
    9.7449 3.1627e+11
    9.7573 3.1728e+11
    9.7697 3.1828e+11
    9.7821 3.1929e+11
    9.7945  3.203e+11
    9.8069 3.2131e+11
    9.8193 3.2232e+11
    9.8317 3.2333e+11
    9.8441 3.2434e+11
    9.8565 3.2535e+11
    9.8689 3.2637e+11
    9.8813 3.2738e+11
    9.8937  3.284e+11
    9.9061 3.2942e+11
    9.9185 3.3044e+11
    9.9309 3.3146e+11
    9.9433 3.3248e+11
    9.9557  3.335e+11
    9.9681 3.3453e+11
    9.9805 3.3555e+11
    9.9929 3.3658e+11
    10.005  3.376e+11
    10.018 3.3863e+11
     10.03 3.3966e+11
    10.042 3.4069e+11
    10.055 3.4172e+11
    10.067 3.4276e+11
     10.08 3.4379e+11
    10.092 3.4483e+11
    10.104 3.4586e+11
    10.117  3.469e+11
    10.129 3.4794e+11
    10.142 3.4898e+11
    10.154 3.5002e+11
    10.166 3.5106e+11
    10.179  3.521e+11
    10.191 3.5315e+11
    10.204 3.5419e+11
    10.216 3.5524e+11
    10.228 3.5628e+11
    10.241 3.5733e+11
    10.253 3.5838e+11
    10.266 3.5943e+11
    10.278 3.6048e+11
     10.29 3.6154e+11
    10.303 3.6259e+11
    10.315 3.6365e+11
    10.328  3.647e+11
     10.34 3.6576e+11
    10.352 3.6682e+11
    10.365 3.6788e+11
    10.377 3.6894e+11
     10.39    3.7e+11
    10.402 3.7106e+11
    10.414 3.7212e+11
    10.427 3.7319e+11
    10.439 3.7426e+11
    10.452 3.7532e+11
    10.464 3.7639e+11
    10.476 3.7746e+11
    10.489 3.7853e+11
    10.501  3.796e+11
    10.514 3.8067e+11
    10.526 3.8174e+11
    10.538 3.8282e+11
    10.551 3.8389e+11
    10.563 3.8497e+11
    10.576 3.8604e+11
    10.588 3.8712e+11
      10.6  3.882e+11
    10.613 3.8928e+11
    10.625 3.9036e+11
    10.638 3.9144e+11
     10.65 3.9253e+11
    10.662 3.9361e+11
    10.675  3.947e+11
    10.687 3.9578e+11
      10.7 3.9687e+11
    10.712 3.9796e+11
    10.724 3.9905e+11
    10.737 4.0014e+11
    10.749 4.0123e+11
    10.762 4.0232e+11
    10.774 4.0341e+11
    10.786 4.0451e+11
    10.799  4.056e+11
    10.811  4.067e+11
    10.824  4.078e+11
    10.836 4.0889e+11
    10.848 4.0999e+11
    10.861 4.1109e+11
    10.873 4.1219e+11
    10.886  4.133e+11
    10.898  4.144e+11
     10.91  4.155e+11
    10.923 4.1661e+11
    10.935 4.1771e+11
    10.948 4.1882e+11
     10.96 4.1993e+11
    10.972 4.2103e+11
    10.985 4.2214e+11
    10.997 4.2326e+11
     11.01 4.2437e+11
    11.022 4.2548e+11
    11.034 4.2659e+11
    11.047 4.2771e+11
    11.059 4.2882e+11
    11.072 4.2994e+11
    11.084 4.3105e+11
    11.096 4.3217e+11
    11.109 4.3329e+11
    11.121 4.3441e+11
    11.134 4.3553e+11
    11.146 4.3665e+11
    11.158 4.3778e+11
    11.171  4.389e+11
    11.183 4.4002e+11
    11.196 4.4115e+11
    11.208 4.4228e+11
     11.22  4.434e+11
    11.233 4.4453e+11
    11.245 4.4566e+11
    11.258 4.4679e+11
     11.27 4.4792e+11
    11.282 4.4905e+11
    11.295 4.5018e+11
    11.307 4.5132e+11
    11.319 4.5245e+11
    11.332 4.5359e+11
    11.344 4.5472e+11
    11.357 4.5586e+11
    11.369 4.5699e+11
    11.381 4.5814e+11
    11.394 4.5927e+11
    11.406 4.6042e+11
    11.419 4.6156e+11
    11.431  4.627e+11
    11.443 4.6384e+11
    11.456 4.6498e+11
    11.468 4.6613e+11
    11.481 4.6727e+11
    11.493 4.6842e+11
    11.505 4.6957e+11
    11.518 4.7071e+11
     11.53 4.7187e+11
    11.543 4.7301e+11
    11.555 4.7416e+11
    11.567 4.7532e+11
     11.58 4.7647e+11
    11.592 4.7762e+11
    11.605 4.7878e+11
    11.617 4.7993e+11
    11.629 4.8109e+11
    11.642 4.8224e+11
    11.654  4.834e+11
    11.667 4.8456e+11
    11.679 4.8572e+11
    11.691 4.8688e+11
    11.704 4.8804e+11
    11.716  4.892e+11
    11.729 4.9036e+11
    11.741 4.9152e+11
    11.753 4.9269e+11
    11.766 4.9385e+11
    11.778 4.9502e+11
    11.791 4.9618e+11
    11.803 4.9735e+11
    11.815 4.9852e+11
    11.828 4.9969e+11
     11.84 5.0086e+11
    11.853 5.0202e+11
    11.865  5.032e+11
    11.877 5.0437e+11
     11.89 5.0554e+11
    11.902 5.0671e+11
    11.915 5.0789e+11
    11.927 5.0906e+11
    11.939 5.1024e+11
    11.952 5.1141e+11
    11.964 5.1259e+11
    11.977 5.1377e+11
    11.989 5.1495e+11
    12.001 5.1613e+11
    12.014  5.173e+11
    12.026 5.1849e+11
    12.039 5.1967e+11
    12.051 5.2085e+11
    12.063 5.2204e+11
    12.076 5.2322e+11
    12.088  5.244e+11
    12.101 5.2559e+11
    12.113 5.2677e+11
    12.125 5.2796e+11
    12.138 5.2915e+11
     12.15 5.3034e+11
    12.163 5.3153e+11
    12.175 5.3272e+11
    12.187 5.3391e+11
      12.2  5.351e+11
    12.212 5.3629e+11
    12.225 5.3748e+11
    12.237 5.3868e+11
    12.249 5.3987e+11
    12.262 5.4106e+11
    12.274 5.4226e+11
    12.287 5.4346e+11
    12.299 5.4465e+11
    12.311 5.4585e+11
    12.324 5.4705e+11
    12.336 5.4825e+11
    12.349 5.4945e+11
    12.361 5.5065e+11
    12.373 5.5185e+11
    12.386 5.5305e+11
    12.398 5.5426e+11
    12.411 5.5546e+11
    12.423 5.5666e+11
    12.435 5.5787e+11
    12.448 5.5907e+11
     12.46 5.6028e+11
    12.473 5.6148e+11
    12.485 5.6269e+11
    12.497  5.639e+11
     12.51 5.6511e+11
    12.522 5.6632e+11
    12.535 5.6753e+11
    12.547 5.6874e+11
    12.559 5.6995e+11
    12.572 5.7116e+11
    12.584 5.7237e+11
    12.597 5.7359e+11
    12.609  5.748e+11
    12.621 5.7602e+11
    12.634 5.7724e+11
    12.646 5.7845e+11
    12.658 5.7967e+11
    12.671 5.8088e+11
    12.683  5.821e+11
    12.696 5.8332e+11
    12.708 5.8454e+11
     12.72 5.8576e+11
    12.733 5.8698e+11
    12.745  5.882e+11
    12.758 5.8943e+11
     12.77 5.9065e+11
    12.782 5.9187e+11
    12.795 5.9309e+11
    12.807 5.9432e+11
     12.82 5.9554e+11
    12.832 5.9677e+11
    12.844 5.9799e+11
    12.857 5.9922e+11
    12.869 6.0045e+11
    12.882 6.0168e+11
    12.894 6.0291e+11
    12.906 6.0414e+11
    12.919 6.0537e+11
    12.931  6.066e+11
    12.944 6.0783e+11
    12.956 6.0906e+11
    12.968 6.1029e+11
    12.981 6.1153e+11
    12.993 6.1276e+11
    13.006 6.1399e+11
    13.018 6.1523e+11
     13.03 6.1646e+11
    13.043  6.177e+11
    13.055 6.1894e+11
    13.068 6.2017e+11
     13.08 6.2141e+11
    13.092 6.2265e+11
    13.105 6.2389e+11
    13.117 6.2513e+11
     13.13 6.2637e+11
    13.142 6.2761e+11
    13.154 6.2885e+11
    13.167 6.3009e+11
    13.179 6.3134e+11
    13.192 6.3258e+11
    13.204 6.3382e+11
    13.216 6.3506e+11
    13.229 6.3631e+11
    13.241 6.3755e+11
    13.254  6.388e+11
    13.266 6.4005e+11
    13.278 6.4129e+11
    13.291 6.4254e+11
    13.303 6.4379e+11
    13.316 6.4504e+11
    13.328 6.4629e+11
     13.34 6.4754e+11
    13.353 6.4879e+11
    13.365 6.5004e+11
    13.378 6.5129e+11
     13.39 6.5254e+11
    13.402 6.5379e+11
    13.415 6.5505e+11
    13.427  6.563e+11
     13.44 6.5755e+11
    13.452 6.5881e+11
    13.464 6.6006e+11
    13.477 6.6132e+11
    13.489 6.6257e+11
    13.502 6.6383e+11
    13.514 6.6509e+11
    13.526 6.6635e+11
    13.539  6.676e+11
    13.551 6.6886e+11
    13.564 6.7012e+11
    13.576 6.7138e+11
    13.588 6.7264e+11
    13.601 6.7391e+11
    13.613 6.7517e+11
    13.626 6.7643e+11
    13.638 6.7769e+11
     13.65 6.7895e+11
    13.663 6.8022e+11
    13.675 6.8148e+11
    13.688 6.8274e+11
      13.7 6.8401e+11
    13.712 6.8527e+11
    13.725 6.8654e+11
    13.737  6.878e+11
     13.75 6.8907e+11
    13.762 6.9034e+11
    13.774 6.9161e+11
    13.787 6.9288e+11
    13.799 6.9415e+11
    13.812 6.9541e+11
    13.824 6.9668e+11
    13.836 6.9795e+11
    13.849 6.9922e+11
    13.861 7.0049e+11
    13.874 7.0176e+11
    13.886 7.0303e+11
    13.898 7.0431e+11
    13.911 7.0558e+11
    13.923 7.0686e+11
    13.936 7.0813e+11
    13.948  7.094e+11
     13.96 7.1068e+11
    13.973 7.1195e+11
    13.985 7.1323e+11
    13.997  7.145e+11
     14.01 7.1578e+11
    14.022 7.1706e+11
    14.035 7.1834e+11
    14.047 7.1962e+11
    14.059 7.2089e+11
    14.072 7.2217e+11
    14.084 7.2345e+11
    14.097 7.2473e+11
    14.109 7.2601e+11
    14.121 7.2729e+11
    14.134 7.2857e+11
    14.146 7.2985e+11
    14.159 7.3114e+11
    14.171 7.3241e+11
    14.183  7.337e+11
    14.196 7.3499e+11
    14.208 7.3627e+11
    14.221 7.3755e+11
    14.233 7.3884e+11
    14.245 7.4012e+11
    14.258 7.4141e+11
     14.27 7.4269e+11
    14.283 7.4398e+11
    14.295 7.4526e+11
    14.307 7.4655e+11
     14.32 7.4784e+11
    14.332 7.4913e+11
    14.345 7.5042e+11
    14.357  7.517e+11
    14.369 7.5299e+11
    14.382 7.5428e+11
    14.394 7.5557e+11
    14.407 7.5686e+11
    14.419 7.5815e+11
    14.431 7.5945e+11
    14.444 7.6073e+11
    14.456 7.6203e+11
    14.469 7.6332e+11
    14.481 7.6461e+11
    14.493 7.6591e+11
    14.506  7.672e+11
    14.518 7.6849e+11
    14.531 7.6979e+11
    14.543 7.7108e+11
    14.555 7.7238e+11
    14.568 7.7367e+11
     14.58 7.7497e+11
    14.593 7.7626e+11
    14.605 7.7756e+11
    14.617 7.7886e+11
     14.63 7.8016e+11
    14.642 7.8145e+11
    14.655 7.8275e+11
    14.667 7.8405e+11
    14.679 7.8535e+11
    14.692 7.8665e+11
    14.704 7.8795e+11
    14.717 7.8925e+11
    14.729 7.9055e+11
    14.741 7.9185e+11
    14.754 7.9315e+11
    14.766 7.9445e+11
    14.779 7.9575e+11
    14.791 7.9706e+11
    14.803 7.9836e+11
    14.816 7.9966e+11
    14.828 8.0096e+11
    14.841 8.0227e+11
    14.853 8.0357e+11
    14.865 8.0487e+11
    14.878 8.0618e+11
     14.89 8.0748e+11
    14.903 8.0879e+11
    14.915 8.1009e+11
    14.927  8.114e+11
     14.94 8.1271e+11
    14.952 8.1401e+11
    14.965 8.1532e+11
    14.977 8.1663e+11
    14.989 8.1793e+11
    15.002 8.1924e+11
    15.014 8.2055e+11
    15.027 8.2185e+11
    15.039 8.2316e+11
    15.051 8.2447e+11
    15.064 8.2578e+11
    15.076 8.2709e+11
    15.089  8.284e+11
    15.101 8.2971e+11
    15.113 8.3102e+11
    15.126 8.3233e+11
    15.138 8.3365e+11
    15.151 8.3496e+11
    15.163 8.3627e+11
    15.175 8.3758e+11
    15.188  8.389e+11
      15.2 8.4021e+11
    15.213 8.4152e+11
    15.225 8.4283e+11
    15.237 8.4415e+11
     15.25 8.4546e+11
    15.262 8.4678e+11
    15.275 8.4809e+11
    15.287  8.494e+11
    15.299 8.5072e+11
    15.312 8.5204e+11
    15.324 8.5335e+11
    15.336 8.5467e+11
    15.349 8.5598e+11
    15.361  8.573e+11
    15.374 8.5862e+11
    15.386 8.5994e+11
    15.398 8.6125e+11
    15.411 8.6257e+11
    15.423 8.6389e+11
    15.436 8.6521e+11
    15.448 8.6653e+11
     15.46 8.6785e+11
    15.473 8.6917e+11
    15.485 8.7048e+11
    15.498  8.718e+11
     15.51 8.7313e+11
    15.522 8.7445e+11
    15.535 8.7576e+11
    15.547 8.7708e+11
     15.56 8.7841e+11
    15.572 8.7973e+11
    15.584 8.8105e+11
    15.597 8.8237e+11
    15.609 8.8369e+11
    15.622 8.8502e+11
    15.634 8.8634e+11
    15.646 8.8766e+11
    15.659 8.8898e+11
    15.671 8.9031e+11
    15.684 8.9163e+11
    15.696 8.9296e+11
    15.708 8.9428e+11
    15.721 8.9561e+11
    15.733 8.9693e+11
    15.746 8.9826e+11
    15.758 8.9958e+11
     15.77 9.0091e+11
    15.783 9.0224e+11
    15.795 9.0356e+11
    15.808 9.0489e+11
     15.82 9.0621e+11
    15.832 9.0753e+11
    15.845 9.0886e+11
    15.857 9.1019e+11
     15.87 9.1152e+11
    15.882 9.1285e+11
    15.894 9.1417e+11
    15.907  9.155e+11
    15.919 9.1683e+11
    15.932 9.1816e+11
    15.944 9.1949e+11
    15.956 9.2082e+11
    15.969 9.2215e+11
    15.981 9.2348e+11
    15.994 9.2481e+11
    16.006 9.2613e+11
    16.018 9.2747e+11
    16.031  9.288e+11
    16.043 9.3013e+11
    16.056 9.3146e+11
    16.068 9.3279e+11
     16.08 9.3412e+11
    16.093 9.3545e+11
    16.105 9.3678e+11
    16.118 9.3812e+11
     16.13 9.3944e+11
    16.142 9.4078e+11
    16.155 9.4211e+11
    16.167 9.4344e+11
     16.18 9.4477e+11
    16.192 9.4611e+11
    16.204 9.4744e+11
    16.217 9.4877e+11
    16.229 9.5011e+11
    16.242 9.5144e+11
    16.254 9.5278e+11
    16.266 9.5411e+11
    16.279 9.5545e+11
    16.291 9.5678e+11
    16.304 9.5812e+11
    16.316 9.5945e+11
    16.328 9.6079e+11
    16.341 9.6212e+11
    16.353 9.6346e+11
    16.366 9.6479e+11
    16.378 9.6613e+11
     16.39 9.6747e+11
    16.403  9.688e+11
    16.415 9.7014e+11
    16.428 9.7147e+11
     16.44 9.7281e+11
    16.452 9.7415e+11
    16.465 9.7548e+11
    16.477 9.7682e+11
     16.49 9.7816e+11
    16.502  9.795e+11
    16.514 9.8083e+11
    16.527 9.8218e+11
    16.539 9.8351e+11
    16.552 9.8485e+11
    16.564 9.8619e+11
    16.576 9.8753e+11
    16.589 9.8887e+11
    16.601 9.9021e+11
    16.613 9.9155e+11
    16.626 9.9289e+11
    16.638 9.9423e+11
    16.651 9.9556e+11
    16.663 9.9691e+11
    16.675 9.9824e+11
    16.688 9.9958e+11
      16.7 1.0009e+12
    16.713 1.0023e+12
    16.725 1.0036e+12
    16.737 1.0049e+12
     16.75 1.0063e+12
    16.762 1.0076e+12
    16.775  1.009e+12
    16.787 1.0103e+12
    16.799 1.0117e+12
    16.812  1.013e+12
    16.824 1.0143e+12
    16.837 1.0157e+12
    16.849  1.017e+12
    16.861 1.0184e+12
    16.874 1.0197e+12
    16.886  1.021e+12
    16.899 1.0224e+12
    16.911 1.0237e+12
    16.923 1.0251e+12
    16.936 1.0264e+12
    16.948 1.0278e+12
    16.961 1.0291e+12
    16.973 1.0305e+12
    16.985 1.0318e+12
    16.998 1.0331e+12
     17.01 1.0345e+12
    17.023 1.0358e+12
    17.035 1.0372e+12
    17.047 1.0385e+12
     17.06 1.0399e+12
    17.072 1.0412e+12
    17.085 1.0425e+12
    17.097 1.0439e+12
    17.109 1.0452e+12
    17.122 1.0466e+12
    17.134 1.0479e+12
    17.147 1.0493e+12
    17.159 1.0506e+12
    17.171  1.052e+12
    17.184 1.0533e+12
    17.196 1.0547e+12
    17.209  1.056e+12
    17.221 1.0573e+12
    17.233 1.0587e+12
    17.246   1.06e+12
    17.258 1.0614e+12
    17.271 1.0627e+12
    17.283 1.0641e+12
    17.295 1.0654e+12
    17.308 1.0668e+12
     17.32 1.0681e+12
    17.333 1.0695e+12
    17.345 1.0708e+12
    17.357 1.0722e+12
     17.37 1.0735e+12
    17.382 1.0749e+12
    17.395 1.0762e+12
    17.407 1.0775e+12
    17.419 1.0789e+12
    17.432 1.0802e+12
    17.444 1.0816e+12
    17.457 1.0829e+12
    17.469 1.0843e+12
    17.481 1.0856e+12
    17.494  1.087e+12
    17.506 1.0883e+12
    17.519 1.0897e+12
    17.531  1.091e+12
    17.543 1.0924e+12
    17.556 1.0937e+12
    17.568 1.0951e+12
    17.581 1.0964e+12
    17.593 1.0978e+12
    17.605 1.0991e+12
    17.618 1.1005e+12
     17.63 1.1018e+12
    17.643 1.1032e+12
    17.655 1.1045e+12
    17.667 1.1059e+12
     17.68 1.1072e+12
    17.692 1.1086e+12
    17.705 1.1099e+12
    17.717 1.1113e+12
    17.729 1.1126e+12
    17.742  1.114e+12
    17.754 1.1153e+12
    17.767 1.1167e+12
    17.779  1.118e+12
    17.791 1.1194e+12
    17.804 1.1207e+12
    17.816 1.1221e+12
    17.829 1.1234e+12
    17.841 1.1248e+12
    17.853 1.1261e+12
    17.866 1.1275e+12
    17.878 1.1288e+12
    17.891 1.1302e+12
    17.903 1.1315e+12
    17.915 1.1329e+12
    17.928 1.1342e+12
     17.94 1.1356e+12
    17.952 1.1369e+12
    17.965 1.1383e+12
    17.977 1.1396e+12
     17.99  1.141e+12
    18.002 1.1423e+12
    18.014 1.1437e+12
    18.027  1.145e+12
    18.039 1.1464e+12
    18.052 1.1477e+12
    18.064 1.1491e+12
    18.076 1.1504e+12
    18.089 1.1518e+12
    18.101 1.1531e+12
    18.114 1.1545e+12
    18.126 1.1558e+12
    18.138 1.1572e+12
    18.151 1.1585e+12
    18.163 1.1599e+12
    18.176 1.1612e+12
    18.188 1.1626e+12
      18.2 1.1639e+12
    18.213 1.1653e+12
    18.225 1.1666e+12
    18.238  1.168e+12
     18.25 1.1693e+12
    18.262 1.1707e+12
    18.275 1.1721e+12
    18.287 1.1734e+12
      18.3 1.1748e+12
    18.312 1.1761e+12
    18.324 1.1775e+12
    18.337 1.1788e+12
    18.349 1.1802e+12
    18.362 1.1815e+12
    18.374 1.1829e+12
    18.386 1.1842e+12
    18.399 1.1856e+12
    18.411 1.1869e+12
    18.424 1.1883e+12
    18.436 1.1896e+12
    18.448  1.191e+12
    18.461 1.1923e+12
    18.473 1.1937e+12
    18.486  1.195e+12
    18.498 1.1964e+12
     18.51 1.1977e+12
    18.523 1.1991e+12
    18.535 1.2005e+12
    18.548 1.2018e+12
     18.56 1.2032e+12
    18.572 1.2045e+12
    18.585 1.2059e+12
    18.597 1.2072e+12
     18.61 1.2086e+12
    18.622 1.2099e+12
    18.634 1.2113e+12
    18.647 1.2126e+12
    18.659  1.214e+12
    18.672 1.2153e+12
    18.684 1.2167e+12
    18.696  1.218e+12
    18.709 1.2194e+12
    18.721 1.2207e+12
    18.734 1.2221e+12
    18.746 1.2234e+12
    18.758 1.2248e+12
    18.771 1.2261e+12
    18.783 1.2275e+12
    18.796 1.2288e+12
    18.808 1.2302e+12
     18.82 1.2316e+12
    18.833 1.2329e+12
    18.845 1.2343e+12
    18.858 1.2356e+12
     18.87  1.237e+12
    18.882 1.2383e+12
    18.895 1.2397e+12
    18.907  1.241e+12
     18.92 1.2424e+12
    18.932 1.2437e+12
    18.944 1.2451e+12
    18.957 1.2464e+12
    18.969 1.2478e+12
    18.982 1.2491e+12
    18.994 1.2505e+12
    19.006 1.2518e+12
    19.019 1.2532e+12
    19.031 1.2545e+12
    19.044 1.2559e+12
    19.056 1.2573e+12
    19.068 1.2586e+12
    19.081   1.26e+12
    19.093 1.2613e+12
    19.106 1.2627e+12
    19.118  1.264e+12
     19.13 1.2654e+12
    19.143 1.2667e+12
    19.155 1.2681e+12
    19.168 1.2694e+12
     19.18 1.2708e+12
    19.192 1.2721e+12
    19.205 1.2735e+12
    19.217 1.2748e+12
     19.23 1.2762e+12
    19.242 1.2775e+12
    19.254 1.2789e+12
    19.267 1.2802e+12
    19.279 1.2816e+12
    19.291 1.2829e+12
    19.304 1.2843e+12
    19.316 1.2856e+12
    19.329  1.287e+12
    19.341 1.2883e+12
    19.353 1.2897e+12
    19.366  1.291e+12
    19.378 1.2924e+12
    19.391 1.2937e+12
    19.403 1.2951e+12
    19.415 1.2965e+12
    19.428 1.2978e+12
     19.44 1.2992e+12
    19.453 1.3005e+12
    19.465 1.3019e+12
    19.477 1.3032e+12
     19.49 1.3046e+12
    19.502 1.3059e+12
    19.515 1.3073e+12
    19.527 1.3086e+12
    19.539   1.31e+12
    19.552 1.3113e+12
    19.564 1.3127e+12
    19.577  1.314e+12
    19.589 1.3154e+12
    19.601 1.3167e+12
    19.614 1.3181e+12
    19.626 1.3194e+12
    19.639 1.3208e+12
    19.651 1.3221e+12
    19.663 1.3235e+12
    19.676 1.3248e+12
    19.688 1.3262e+12
    19.701 1.3275e+12
    19.713 1.3289e+12
    19.725 1.3302e+12
    19.738 1.3316e+12
     19.75 1.3329e+12
    19.763 1.3343e+12
    19.775 1.3356e+12
    19.787  1.337e+12
      19.8 1.3383e+12
    19.812 1.3397e+12
    19.825  1.341e+12
    19.837 1.3424e+12
    19.849 1.3437e+12
    19.862 1.3451e+12
    19.874 1.3464e+12
    19.887 1.3478e+12
    19.899 1.3491e+12
    19.911 1.3505e+12
    19.924 1.3518e+12
    19.936 1.3532e+12
    19.949 1.3545e+12
    19.961 1.3559e+12
    19.973 1.3572e+12
    19.986 1.3586e+12
    19.998 1.3599e+12
    20.011 1.3613e+12
    20.023 1.3626e+12
    20.035  1.364e+12
    20.048 1.3653e+12
     20.06 1.3666e+12
    20.073  1.368e+12
    20.085 1.3693e+12
    20.097 1.3707e+12
     20.11  1.372e+12
    20.122 1.3734e+12
    20.135 1.3747e+12
    20.147 1.3761e+12
    20.159 1.3774e+12
    20.172 1.3788e+12
    20.184 1.3801e+12
    20.197 1.3815e+12
    20.209 1.3828e+12
    20.221 1.3842e+12
    20.234 1.3855e+12
    20.246 1.3869e+12
    20.259 1.3882e+12
    20.271 1.3896e+12
    20.283 1.3909e+12
    20.296 1.3923e+12
    20.308 1.3936e+12
    20.321 1.3949e+12
    20.333 1.3963e+12
    20.345 1.3976e+12
    20.358  1.399e+12
     20.37 1.4003e+12
    20.383 1.4017e+12
    20.395  1.403e+12
    20.407 1.4044e+12
     20.42 1.4057e+12
    20.432 1.4071e+12
    20.445 1.4084e+12
    20.457 1.4098e+12
    20.469 1.4111e+12
    20.482 1.4124e+12
    20.494 1.4138e+12
    20.507 1.4151e+12
    20.519 1.4165e+12
    20.531 1.4178e+12
    20.544 1.4192e+12
    20.556 1.4205e+12
    20.569 1.4219e+12
    20.581 1.4232e+12
    20.593 1.4246e+12
    20.606 1.4259e+12
    20.618 1.4272e+12
     20.63 1.4286e+12
    20.643 1.4299e+12
    20.655 1.4313e+12
    20.668 1.4326e+12
     20.68  1.434e+12
    20.692 1.4353e+12
    20.705 1.4367e+12
    20.717  1.438e+12
     20.73 1.4393e+12
    20.742 1.4407e+12
    20.754  1.442e+12
    20.767 1.4434e+12
    20.779 1.4447e+12
    20.792 1.4461e+12
    20.804 1.4474e+12
    20.816 1.4487e+12
    20.829 1.4501e+12
    20.841 1.4514e+12
    20.854 1.4528e+12
    20.866 1.4541e+12
    20.878 1.4554e+12
    20.891 1.4568e+12
    20.903 1.4581e+12
    20.916 1.4595e+12
    20.928 1.4608e+12
     20.94 1.4622e+12
    20.953 1.4635e+12
    20.965 1.4648e+12
    20.978 1.4662e+12
     20.99 1.4675e+12
    21.002 1.4689e+12
    21.015 1.4702e+12
    21.027 1.4715e+12
     21.04 1.4729e+12
    21.052 1.4742e+12
    21.064 1.4756e+12
    21.077 1.4769e+12
    21.089 1.4783e+12
    21.102 1.4796e+12
    21.114 1.4809e+12
    21.126 1.4823e+12
    21.139 1.4836e+12
    21.151 1.4849e+12
    21.164 1.4863e+12
    21.176 1.4876e+12
    21.188  1.489e+12
    21.201 1.4903e+12
    21.213 1.4916e+12
    21.226  1.493e+12
    21.238 1.4943e+12
     21.25 1.4957e+12
    21.263  1.497e+12
    21.275 1.4983e+12
    21.288 1.4997e+12
      21.3  1.501e+12
    21.312 1.5023e+12
    21.325 1.5037e+12
    21.337  1.505e+12
     21.35 1.5064e+12
    21.362 1.5077e+12
    21.374  1.509e+12
    21.387 1.5104e+12
    21.399 1.5117e+12
    21.412 1.5131e+12
    21.424 1.5144e+12
    21.436 1.5157e+12
    21.449 1.5171e+12
    21.461 1.5184e+12
    21.474 1.5197e+12
    21.486 1.5211e+12
    21.498 1.5224e+12
    21.511 1.5237e+12
    21.523 1.5251e+12
    21.536 1.5264e+12
    21.548 1.5277e+12
     21.56 1.5291e+12
    21.573 1.5304e+12
    21.585 1.5317e+12
    21.598 1.5331e+12
     21.61 1.5344e+12
    21.622 1.5358e+12
    21.635 1.5371e+12
    21.647 1.5384e+12
     21.66 1.5398e+12
    21.672 1.5411e+12
    21.684 1.5424e+12
    21.697 1.5438e+12
    21.709 1.5451e+12
    21.722 1.5464e+12
    21.734 1.5478e+12
    21.746 1.5491e+12
    21.759 1.5504e+12
    21.771 1.5518e+12
    21.784 1.5531e+12
    21.796 1.5544e+12
    21.808 1.5558e+12
    21.821 1.5571e+12
    21.833 1.5584e+12
    21.846 1.5598e+12
    21.858 1.5611e+12
     21.87 1.5624e+12
    21.883 1.5638e+12
    21.895 1.5651e+12
    21.908 1.5664e+12
     21.92 1.5677e+12
    21.932 1.5691e+12
    21.945 1.5704e+12
    21.957 1.5717e+12
    21.969 1.5731e+12
    21.982 1.5744e+12
    21.994 1.5757e+12
    22.007 1.5771e+12
    22.019 1.5784e+12
    22.031 1.5797e+12
    22.044  1.581e+12
    22.056 1.5824e+12
    22.069 1.5837e+12
    22.081  1.585e+12
    22.093 1.5864e+12
    22.106 1.5877e+12
    22.118  1.589e+12
    22.131 1.5903e+12
    22.143 1.5917e+12
    22.155  1.593e+12
    22.168 1.5943e+12
     22.18 1.5957e+12
    22.193  1.597e+12
    22.205 1.5983e+12
    22.217 1.5996e+12
     22.23  1.601e+12
    22.242 1.6023e+12
    22.255 1.6036e+12
    22.267 1.6049e+12
    22.279 1.6063e+12
    22.292 1.6076e+12
    22.304 1.6089e+12
    22.317 1.6103e+12
    22.329 1.6116e+12
    22.341 1.6129e+12
    22.354 1.6142e+12
    22.366 1.6156e+12
    22.379 1.6169e+12
    22.391 1.6182e+12
    22.403 1.6195e+12
    22.416 1.6209e+12
    22.428 1.6222e+12
    22.441 1.6235e+12
    22.453 1.6248e+12
    22.465 1.6262e+12
    22.478 1.6275e+12
     22.49 1.6288e+12
    22.503 1.6301e+12
    22.515 1.6314e+12
    22.527 1.6328e+12
     22.54 1.6341e+12
    22.552 1.6354e+12
    22.565 1.6367e+12
    22.577 1.6381e+12
    22.589 1.6394e+12
    22.602 1.6407e+12
    22.614  1.642e+12
    22.627 1.6433e+12
    22.639 1.6447e+12
    22.651  1.646e+12
    22.664 1.6473e+12
    22.676 1.6486e+12
    22.689   1.65e+12
    22.701 1.6513e+12
    22.713 1.6526e+12
    22.726 1.6539e+12
    22.738 1.6552e+12
    22.751 1.6566e+12
    22.763 1.6579e+12
    22.775 1.6592e+12
    22.788 1.6605e+12
      22.8 1.6618e+12
    22.813 1.6632e+12
    22.825 1.6645e+12
    22.837 1.6658e+12
     22.85 1.6671e+12
    22.862 1.6684e+12
    22.875 1.6697e+12
    22.887 1.6711e+12
    22.899 1.6724e+12
    22.912 1.6737e+12
    22.924  1.675e+12
    22.937 1.6763e+12
    22.949 1.6776e+12
    22.961  1.679e+12
    22.974 1.6803e+12
    22.986 1.6816e+12
    22.999 1.6829e+12
    23.011 1.6842e+12
    23.023 1.6855e+12
    23.036 1.6869e+12
    23.048 1.6882e+12
    23.061 1.6895e+12
    23.073 1.6908e+12
    23.085 1.6921e+12
    23.098 1.6934e+12
     23.11 1.6948e+12
    23.123 1.6961e+12
    23.135 1.6974e+12
    23.147 1.6987e+12
     23.16    1.7e+12
    23.172 1.7013e+12
    23.185 1.7026e+12
    23.197  1.704e+12
    23.209 1.7053e+12
    23.222 1.7066e+12
    23.234 1.7079e+12
    23.247 1.7092e+12
    23.259 1.7105e+12
    23.271 1.7118e+12
    23.284 1.7131e+12
    23.296 1.7145e+12
    23.308 1.7158e+12
    23.321 1.7171e+12
    23.333 1.7184e+12
    23.346 1.7197e+12
    23.358  1.721e+12
     23.37 1.7223e+12
    23.383 1.7236e+12
    23.395 1.7249e+12
    23.408 1.7262e+12
     23.42 1.7276e+12
    23.432 1.7289e+12
    23.445 1.7302e+12
    23.457 1.7315e+12
     23.47 1.7328e+12
    23.482 1.7341e+12
    23.494 1.7354e+12
    23.507 1.7367e+12
    23.519  1.738e+12
    23.532 1.7393e+12
    23.544 1.7406e+12
    23.556  1.742e+12
    23.569 1.7433e+12
    23.581 1.7446e+12
    23.594 1.7459e+12
    23.606 1.7472e+12
    23.618 1.7485e+12
    23.631 1.7498e+12
    23.643 1.7511e+12
    23.656 1.7524e+12
    23.668 1.7537e+12
     23.68  1.755e+12
    23.693 1.7563e+12
    23.705 1.7576e+12
    23.718 1.7589e+12
     23.73 1.7602e+12
    23.742 1.7615e+12
    23.755 1.7628e+12
    23.767 1.7641e+12
     23.78 1.7655e+12
    23.792 1.7668e+12
    23.804 1.7681e+12
    23.817 1.7694e+12
    23.829 1.7707e+12
    23.842  1.772e+12
    23.854 1.7733e+12
    23.866 1.7746e+12
    23.879 1.7759e+12
    23.891 1.7772e+12
    23.904 1.7785e+12
    23.916 1.7798e+12
    23.928 1.7811e+12
    23.941 1.7824e+12
    23.953 1.7837e+12
    23.966  1.785e+12
    23.978 1.7863e+12
     23.99 1.7876e+12
    24.003 1.7889e+12
    24.015 1.7902e+12
    24.028 1.7915e+12
     24.04 1.7928e+12
    24.052 1.7941e+12
    24.065 1.7954e+12
    24.077 1.7967e+12
     24.09  1.798e+12
    24.102 1.7993e+12
    24.114 1.8006e+12
    24.127 1.8019e+12
    24.139 1.8032e+12
    24.152 1.8045e+12
    24.164 1.8058e+12
    24.176 1.8071e+12
    24.189 1.8084e+12
    24.201 1.8097e+12
    24.214  1.811e+12
    24.226 1.8123e+12
    24.238 1.8135e+12
    24.251 1.8148e+12
    24.263 1.8161e+12
    24.276 1.8174e+12
    24.288 1.8187e+12
      24.3   1.82e+12
    24.313 1.8213e+12
    24.325 1.8226e+12
    24.338 1.8239e+12
     24.35 1.8252e+12
    24.362 1.8265e+12
    24.375 1.8278e+12
    24.387 1.8291e+12
      24.4 1.8304e+12
    24.412 1.8317e+12
    24.424  1.833e+12
    24.437 1.8343e+12
    24.449 1.8355e+12
    24.462 1.8368e+12
    24.474 1.8381e+12
    24.486 1.8394e+12
    24.499 1.8407e+12
    24.511  1.842e+12
    24.524 1.8433e+12
    24.536 1.8446e+12
    24.548 1.8459e+12
    24.561 1.8472e+12
    24.573 1.8485e+12
    24.585 1.8498e+12
    24.598  1.851e+12
     24.61 1.8523e+12
    24.623 1.8536e+12
    24.635 1.8549e+12
    24.647 1.8562e+12
     24.66 1.8575e+12
    24.672 1.8588e+12
    24.685 1.8601e+12
    24.697 1.8614e+12
    24.709 1.8626e+12
    24.722 1.8639e+12
    24.734 1.8652e+12
    24.747 1.8665e+12
    24.759 1.8678e+12
    24.771 1.8691e+12
    24.784 1.8704e+12
    24.796 1.8716e+12
    24.809 1.8729e+12
    24.821 1.8742e+12
    24.833 1.8755e+12
    24.846 1.8768e+12
    24.858 1.8781e+12
    24.871 1.8794e+12
    24.883 1.8806e+12
    24.895 1.8819e+12
    24.908 1.8832e+12
     24.92 1.8845e+12
    24.933 1.8858e+12
    24.945 1.8871e+12
    24.957 1.8883e+12
     24.97 1.8896e+12
    24.982 1.8909e+12
    24.995 1.8922e+12
    25.007 1.8935e+12
    25.019 1.8948e+12
    25.032  1.896e+12
    25.044 1.8973e+12
    25.057 1.8986e+12
    25.069 1.8999e+12
    25.081 1.9012e+12
    25.094 1.9024e+12
    25.106 1.9037e+12
    25.119  1.905e+12
    25.131 1.9063e+12
    25.143 1.9076e+12
    25.156 1.9088e+12
    25.168 1.9101e+12
    25.181 1.9114e+12
    25.193 1.9127e+12
    25.205  1.914e+12
    25.218 1.9152e+12
     25.23 1.9165e+12
    25.243 1.9178e+12
    25.255 1.9191e+12
    25.267 1.9203e+12
     25.28 1.9216e+12
    25.292 1.9229e+12
    25.305 1.9242e+12
    25.317 1.9254e+12
    25.329 1.9267e+12
    25.342  1.928e+12
    25.354 1.9293e+12
    25.367 1.9306e+12
    25.379 1.9318e+12
    25.391 1.9331e+12
    25.404 1.9344e+12
    25.416 1.9357e+12
    25.429 1.9369e+12
    25.441 1.9382e+12
    25.453 1.9395e+12
    25.466 1.9408e+12
    25.478  1.942e+12
    25.491 1.9433e+12
    25.503 1.9446e+12
    25.515 1.9458e+12
    25.528 1.9471e+12
     25.54 1.9484e+12
    25.553 1.9497e+12
    25.565 1.9509e+12
    25.577 1.9522e+12
     25.59 1.9535e+12
    25.602 1.9547e+12
    25.615  1.956e+12
    25.627 1.9573e+12
    25.639 1.9586e+12
    25.652 1.9598e+12
    25.664 1.9611e+12
    25.677 1.9624e+12
    25.689 1.9636e+12
    25.701 1.9649e+12
    25.714 1.9662e+12
    25.726 1.9674e+12
    25.739 1.9687e+12
    25.751   1.97e+12
    25.763 1.9712e+12
    25.776 1.9725e+12
    25.788 1.9738e+12
    25.801  1.975e+12
    25.813 1.9763e+12
    25.825 1.9776e+12
    25.838 1.9788e+12
     25.85 1.9801e+12
    25.863 1.9814e+12
    25.875 1.9826e+12
    25.887 1.9839e+12
      25.9 1.9852e+12
    25.912 1.9864e+12
    25.924 1.9877e+12
    25.937  1.989e+12
    25.949 1.9902e+12
    25.962 1.9915e+12
    25.974 1.9928e+12
    25.986  1.994e+12
    25.999 1.9953e+12
    26.011 1.9965e+12
    26.024 1.9978e+12
    26.036 1.9991e+12
    26.048 2.0003e+12
    26.061 2.0016e+12
    26.073 2.0028e+12
    26.086 2.0041e+12
    26.098 2.0054e+12
     26.11 2.0066e+12
    26.123 2.0079e+12
    26.135 2.0092e+12
    26.148 2.0104e+12
     26.16 2.0117e+12
    26.172 2.0129e+12
    26.185 2.0142e+12
    26.197 2.0155e+12
     26.21 2.0167e+12
    26.222  2.018e+12
    26.234 2.0192e+12
    26.247 2.0205e+12
    26.259 2.0217e+12
    26.272  2.023e+12
    26.284 2.0243e+12
    26.296 2.0255e+12
    26.309 2.0268e+12
    26.321  2.028e+12
    26.334 2.0293e+12
    26.346 2.0305e+12
    26.358 2.0318e+12
    26.371 2.0331e+12
    26.383 2.0343e+12
    26.396 2.0356e+12
    26.408 2.0368e+12
     26.42 2.0381e+12
    26.433 2.0393e+12
    26.445 2.0406e+12
    26.458 2.0418e+12
     26.47 2.0431e+12
    26.482 2.0444e+12
    26.495 2.0456e+12
    26.507 2.0469e+12
     26.52 2.0481e+12
    26.532 2.0494e+12
    26.544 2.0506e+12
    26.557 2.0519e+12
    26.569 2.0531e+12
    26.582 2.0544e+12
    26.594 2.0556e+12
    26.606 2.0569e+12
    26.619 2.0581e+12
    26.631 2.0594e+12
    26.644 2.0606e+12
    26.656 2.0619e+12
    26.668 2.0631e+12
    26.681 2.0644e+12
    26.693 2.0656e+12
    26.706 2.0669e+12
    26.718 2.0681e+12
     26.73 2.0694e+12
    26.743 2.0706e+12
    26.755 2.0719e+12
    26.768 2.0731e+12
     26.78 2.0743e+12
    26.792 2.0756e+12
    26.805 2.0768e+12
    26.817 2.0781e+12
     26.83 2.0793e+12
    26.842 2.0806e+12
    26.854 2.0818e+12
    26.867 2.0831e+12
    26.879 2.0843e+12
    26.892 2.0856e+12
    26.904 2.0868e+12
    26.916 2.0881e+12
    26.929 2.0893e+12
    26.941 2.0905e+12
    26.954 2.0918e+12
    26.966  2.093e+12
    26.978 2.0943e+12
    26.991 2.0955e+12
    27.003 2.0968e+12
    27.016  2.098e+12
    27.028 2.0992e+12
     27.04 2.1005e+12
    27.053 2.1017e+12
    27.065  2.103e+12
    27.078 2.1042e+12
     27.09 2.1054e+12
    27.102 2.1067e+12
    27.115 2.1079e+12
    27.127 2.1092e+12
     27.14 2.1104e+12
    27.152 2.1117e+12
    27.164 2.1129e+12
    27.177 2.1141e+12
    27.189 2.1154e+12
    27.202 2.1166e+12
    27.214 2.1178e+12
    27.226 2.1191e+12
    27.239 2.1203e+12
    27.251 2.1215e+12
    27.263 2.1228e+12
    27.276  2.124e+12
    27.288 2.1253e+12
    27.301 2.1265e+12
    27.313 2.1277e+12
    27.325  2.129e+12
    27.338 2.1302e+12
     27.35 2.1314e+12
    27.363 2.1327e+12
    27.375 2.1339e+12
    27.387 2.1352e+12
      27.4 2.1364e+12
    27.412 2.1376e+12
    27.425 2.1388e+12
    27.437 2.1401e+12
    27.449 2.1413e+12
    27.462 2.1425e+12
    27.474 2.1438e+12
    27.487  2.145e+12
    27.499 2.1463e+12
    27.511 2.1475e+12
    27.524 2.1487e+12
    27.536 2.1499e+12
    27.549 2.1512e+12
    27.561 2.1524e+12
    27.573 2.1536e+12
    27.586 2.1549e+12
    27.598 2.1561e+12
    27.611 2.1573e+12
    27.623 2.1586e+12
    27.635 2.1598e+12
    27.648  2.161e+12
     27.66 2.1622e+12
    27.673 2.1635e+12
    27.685 2.1647e+12
    27.697 2.1659e+12
     27.71 2.1672e+12
    27.722 2.1684e+12
    27.735 2.1696e+12
    27.747 2.1708e+12
    27.759 2.1721e+12
    27.772 2.1733e+12
    27.784 2.1745e+12
    27.797 2.1757e+12
    27.809  2.177e+12
    27.821 2.1782e+12
    27.834 2.1794e+12
    27.846 2.1806e+12
    27.859 2.1819e+12
    27.871 2.1831e+12
    27.883 2.1843e+12
    27.896 2.1855e+12
    27.908 2.1868e+12
    27.921  2.188e+12
    27.933 2.1892e+12
    27.945 2.1904e+12
    27.958 2.1916e+12
     27.97 2.1929e+12
    27.983 2.1941e+12
    27.995 2.1953e+12
    28.007 2.1965e+12
     28.02 2.1978e+12
    28.032  2.199e+12
    28.045 2.2002e+12
    28.057 2.2014e+12
    28.069 2.2026e+12
    28.082 2.2039e+12
    28.094 2.2051e+12
    28.107 2.2063e+12
    28.119 2.2075e+12
    28.131 2.2087e+12
    28.144 2.2099e+12
    28.156 2.2112e+12
    28.169 2.2124e+12
    28.181 2.2136e+12
    28.193 2.2148e+12
    28.206  2.216e+12
    28.218 2.2173e+12
    28.231 2.2185e+12
    28.243 2.2197e+12
    28.255 2.2209e+12
    28.268 2.2221e+12
     28.28 2.2233e+12
    28.293 2.2245e+12
    28.305 2.2258e+12
    28.317  2.227e+12
     28.33 2.2282e+12
    28.342 2.2294e+12
    28.355 2.2306e+12
    28.367 2.2318e+12
    28.379  2.233e+12
    28.392 2.2343e+12
    28.404 2.2355e+12
    28.417 2.2367e+12
    28.429 2.2379e+12
    28.441 2.2391e+12
    28.454 2.2403e+12
    28.466 2.2415e+12
    28.479 2.2427e+12
    28.491  2.244e+12
    28.503 2.2452e+12
    28.516 2.2464e+12
    28.528 2.2476e+12
    28.541 2.2488e+12
    28.553   2.25e+12
    28.565 2.2512e+12
    28.578 2.2524e+12
     28.59 2.2536e+12
    28.602 2.2548e+12
    28.615  2.256e+12
    28.627 2.2572e+12
     28.64 2.2585e+12
    28.652 2.2597e+12
    28.664 2.2609e+12
    28.677 2.2621e+12
    28.689 2.2633e+12
    28.702 2.2645e+12
    28.714 2.2657e+12
    28.726 2.2669e+12
    28.739 2.2681e+12
    28.751 2.2693e+12
    28.764 2.2705e+12
    28.776 2.2717e+12
    28.788 2.2729e+12
    28.801 2.2741e+12
    28.813 2.2753e+12
    28.826 2.2765e+12
    28.838 2.2777e+12
     28.85 2.2789e+12
    28.863 2.2801e+12
    28.875 2.2813e+12
    28.888 2.2825e+12
      28.9 2.2838e+12
    28.912  2.285e+12
    28.925 2.2862e+12
    28.937 2.2873e+12
     28.95 2.2886e+12
    28.962 2.2898e+12
    28.974  2.291e+12
    28.987 2.2922e+12
    28.999 2.2934e+12
    29.012 2.2946e+12
    29.024 2.2958e+12
    29.036  2.297e+12
    29.049 2.2981e+12
    29.061 2.2993e+12
    29.074 2.3005e+12
    29.086 2.3017e+12
    29.098 2.3029e+12
    29.111 2.3041e+12
    29.123 2.3053e+12
    29.136 2.3065e+12
    29.148 2.3077e+12
     29.16 2.3089e+12
    29.173 2.3101e+12
    29.185 2.3113e+12
    29.198 2.3125e+12
     29.21 2.3137e+12
    29.222 2.3149e+12
    29.235 2.3161e+12
    29.247 2.3173e+12
     29.26 2.3185e+12
    29.272 2.3197e+12
    29.284 2.3209e+12
    29.297 2.3221e+12
    29.309 2.3233e+12
    29.322 2.3244e+12
    29.334 2.3256e+12
    29.346 2.3268e+12
    29.359  2.328e+12
    29.371 2.3292e+12
    29.384 2.3304e+12
    29.396 2.3316e+12
    29.408 2.3328e+12
    29.421  2.334e+12
    29.433 2.3352e+12
    29.446 2.3364e+12
    29.458 2.3375e+12
     29.47 2.3387e+12
    29.483 2.3399e+12
    29.495 2.3411e+12
    29.508 2.3423e+12
     29.52 2.3435e+12
    29.532 2.3447e+12
    29.545 2.3459e+12
    29.557 2.3471e+12
     29.57 2.3482e+12
    29.582 2.3494e+12
    29.594 2.3506e+12
    29.607 2.3518e+12
    29.619  2.353e+12
    29.632 2.3542e+12
    29.644 2.3554e+12
    29.656 2.3565e+12
    29.669 2.3577e+12
    29.681 2.3589e+12
    29.694 2.3601e+12
    29.706 2.3613e+12
    29.718 2.3624e+12
    29.731 2.3636e+12
    29.743 2.3648e+12
    29.756  2.366e+12
    29.768 2.3672e+12
     29.78 2.3684e+12
    29.793 2.3695e+12
    29.805 2.3707e+12
    29.818 2.3719e+12
     29.83 2.3731e+12
    29.842 2.3743e+12
    29.855 2.3755e+12
    29.867 2.3766e+12
     29.88 2.3778e+12
    29.892  2.379e+12
    29.904 2.3802e+12
    29.917 2.3813e+12
    29.929 2.3825e+12
    29.941 2.3837e+12
    29.954 2.3849e+12
    29.966 2.3861e+12
    29.979 2.3872e+12
    29.991 2.3884e+12
    30.003 2.3896e+12
