RRKM rate, sf=0.970, S*=-13.55, E0=0.82 and Delta=-0.00
   En (eV)    k (s-1)
         0          0
  0.012398          0
  0.024796          0
  0.037194          0
  0.049593          0
  0.061991          0
  0.074389          0
  0.086787          0
  0.099185          0
   0.11158          0
   0.12398          0
   0.13638          0
   0.14878          0
   0.16118          0
   0.17357          0
   0.18597          0
   0.19837          0
   0.21077          0
   0.22317          0
   0.23556          0
   0.24796          0
   0.26036          0
   0.27276          0
   0.28516          0
   0.29756          0
   0.30995          0
   0.32235          0
   0.33475          0
   0.34715          0
   0.35955          0
   0.37194          0
   0.38434          0
   0.39674          0
   0.40914          0
   0.42154          0
   0.43393          0
   0.44633          0
   0.45873          0
   0.47113          0
   0.48353          0
   0.49593          0
   0.50832          0
   0.52072          0
   0.53312          0
   0.54552          0
   0.55792          0
   0.57031          0
   0.58271          0
   0.59511          0
   0.60751          0
   0.61991          0
    0.6323          0
    0.6447          0
    0.6571          0
    0.6695          0
    0.6819          0
    0.6943          0
   0.70669          0
   0.71909          0
   0.73149          0
   0.74389          0
   0.75629          0
   0.76868          0
   0.78108          0
   0.79348          0
   0.80588          0
   0.81828          0
   0.83067     11.927
   0.84307     27.856
   0.85547      65.17
   0.86787     113.13
   0.88027      190.3
   0.89267     294.78
   0.90506     443.68
   0.91746     648.31
   0.92986     918.03
   0.94226     1280.3
   0.95466     1739.6
   0.96705       2334
   0.97945     3074.5
   0.99185     4004.8
    1.0042     5148.1
    1.0166     6550.6
     1.029     8252.3
    1.0414      10301
    1.0538      12755
    1.0662      15669
    1.0786      19116
     1.091      23163
    1.1034      27898
    1.1158      33404
    1.1282      39783
    1.1406      47137
     1.153      55584
    1.1654      65247
    1.1778      76261
    1.1902      88773
    1.2026 1.0294e+05
     1.215 1.1892e+05
    1.2274 1.3691e+05
    1.2398  1.571e+05
    1.2522 1.7969e+05
    1.2646  2.049e+05
     1.277 2.3296e+05
    1.2894 2.6414e+05
    1.3018 2.9868e+05
    1.3142 3.3687e+05
    1.3266 3.7901e+05
     1.339  4.254e+05
    1.3514 4.7639e+05
    1.3638 5.3231e+05
    1.3762 5.9354e+05
    1.3886 6.6046e+05
     1.401 7.3347e+05
    1.4134   8.13e+05
    1.4258 8.9949e+05
    1.4382 9.9341e+05
    1.4506 1.0952e+06
     1.463 1.2055e+06
    1.4754 1.3247e+06
    1.4878 1.4534e+06
    1.5002 1.5922e+06
    1.5126 1.7417e+06
     1.525 1.9025e+06
    1.5374 2.0753e+06
    1.5498 2.2606e+06
    1.5622 2.4594e+06
    1.5746 2.6721e+06
     1.587 2.8997e+06
    1.5994 3.1428e+06
    1.6118 3.4024e+06
    1.6242 3.6791e+06
    1.6366 3.9739e+06
     1.649 4.2877e+06
    1.6613 4.6214e+06
    1.6737 4.9758e+06
    1.6861 5.3521e+06
    1.6985 5.7512e+06
    1.7109 6.1741e+06
    1.7233 6.6218e+06
    1.7357 7.0956e+06
    1.7481 7.5965e+06
    1.7605 8.1256e+06
    1.7729 8.6842e+06
    1.7853 9.2734e+06
    1.7977 9.8945e+06
    1.8101 1.0549e+07
    1.8225 1.1238e+07
    1.8349 1.1962e+07
    1.8473 1.2724e+07
    1.8597 1.3525e+07
    1.8721 1.4365e+07
    1.8845 1.5247e+07
    1.8969 1.6172e+07
    1.9093 1.7142e+07
    1.9217 1.8158e+07
    1.9341 1.9222e+07
    1.9465 2.0335e+07
    1.9589 2.1499e+07
    1.9713 2.2716e+07
    1.9837 2.3987e+07
    1.9961 2.5315e+07
    2.0085 2.6701e+07
    2.0209 2.8147e+07
    2.0333 2.9655e+07
    2.0457 3.1226e+07
    2.0581 3.2863e+07
    2.0705 3.4568e+07
    2.0829 3.6342e+07
    2.0953 3.8189e+07
    2.1077 4.0109e+07
    2.1201 4.2105e+07
    2.1325 4.4179e+07
    2.1449 4.6334e+07
    2.1573 4.8571e+07
    2.1697 5.0893e+07
    2.1821 5.3302e+07
    2.1945   5.58e+07
    2.2069  5.839e+07
    2.2193 6.1074e+07
    2.2317 6.3855e+07
    2.2441 6.6735e+07
    2.2565 6.9716e+07
    2.2689 7.2802e+07
    2.2813 7.5994e+07
    2.2937 7.9295e+07
    2.3061 8.2708e+07
    2.3185 8.6236e+07
    2.3308 8.9881e+07
    2.3432 9.3646e+07
    2.3556 9.7533e+07
     2.368 1.0155e+08
    2.3804 1.0569e+08
    2.3928 1.0996e+08
    2.4052 1.1437e+08
    2.4176 1.1891e+08
      2.43 1.2359e+08
    2.4424 1.2842e+08
    2.4548 1.3339e+08
    2.4672 1.3852e+08
    2.4796 1.4379e+08
     2.492 1.4922e+08
    2.5044  1.548e+08
    2.5168 1.6055e+08
    2.5292 1.6647e+08
    2.5416 1.7255e+08
     2.554  1.788e+08
    2.5664 1.8523e+08
    2.5788 1.9183e+08
    2.5912 1.9862e+08
    2.6036 2.0559e+08
     2.616 2.1275e+08
    2.6284  2.201e+08
    2.6408 2.2764e+08
    2.6532 2.3539e+08
    2.6656 2.4333e+08
     2.678 2.5148e+08
    2.6904 2.5984e+08
    2.7028 2.6841e+08
    2.7152  2.772e+08
    2.7276 2.8621e+08
      2.74 2.9545e+08
    2.7524  3.049e+08
    2.7648 3.1459e+08
    2.7772 3.2452e+08
    2.7896 3.3468e+08
     2.802 3.4509e+08
    2.8144 3.5574e+08
    2.8268 3.6665e+08
    2.8392  3.778e+08
    2.8516 3.8922e+08
     2.864 4.0089e+08
    2.8764 4.1284e+08
    2.8888 4.2505e+08
    2.9012 4.3754e+08
    2.9136  4.503e+08
     2.926 4.6334e+08
    2.9384 4.7668e+08
    2.9508  4.903e+08
    2.9632 5.0421e+08
    2.9756 5.1843e+08
     2.988 5.3294e+08
    3.0003 5.4777e+08
    3.0127  5.629e+08
    3.0251 5.7835e+08
    3.0375 5.9412e+08
    3.0499 6.1021e+08
    3.0623 6.2663e+08
    3.0747 6.4338e+08
    3.0871 6.6047e+08
    3.0995  6.779e+08
    3.1119 6.9567e+08
    3.1243 7.1379e+08
    3.1367 7.3226e+08
    3.1491  7.511e+08
    3.1615  7.703e+08
    3.1739 7.8986e+08
    3.1863 8.0979e+08
    3.1987  8.301e+08
    3.2111 8.5079e+08
    3.2235 8.7187e+08
    3.2359 8.9333e+08
    3.2483 9.1519e+08
    3.2607 9.3745e+08
    3.2731 9.6011e+08
    3.2855 9.8318e+08
    3.2979 1.0067e+09
    3.3103 1.0306e+09
    3.3227 1.0549e+09
    3.3351 1.0796e+09
    3.3475 1.1048e+09
    3.3599 1.1304e+09
    3.3723 1.1564e+09
    3.3847 1.1829e+09
    3.3971 1.2099e+09
    3.4095 1.2373e+09
    3.4219 1.2651e+09
    3.4343 1.2934e+09
    3.4467 1.3222e+09
    3.4591 1.3515e+09
    3.4715 1.3812e+09
    3.4839 1.4114e+09
    3.4963 1.4421e+09
    3.5087 1.4733e+09
    3.5211  1.505e+09
    3.5335 1.5372e+09
    3.5459 1.5699e+09
    3.5583 1.6031e+09
    3.5707 1.6368e+09
    3.5831 1.6711e+09
    3.5955 1.7058e+09
    3.6079 1.7411e+09
    3.6203  1.777e+09
    3.6327 1.8134e+09
    3.6451 1.8503e+09
    3.6574 1.8877e+09
    3.6698 1.9258e+09
    3.6822 1.9643e+09
    3.6946 2.0035e+09
     3.707 2.0432e+09
    3.7194 2.0835e+09
    3.7318 2.1243e+09
    3.7442 2.1658e+09
    3.7566 2.2078e+09
     3.769 2.2504e+09
    3.7814 2.2936e+09
    3.7938 2.3375e+09
    3.8062 2.3819e+09
    3.8186 2.4269e+09
     3.831 2.4726e+09
    3.8434 2.5189e+09
    3.8558 2.5658e+09
    3.8682 2.6133e+09
    3.8806 2.6615e+09
     3.893 2.7103e+09
    3.9054 2.7598e+09
    3.9178 2.8099e+09
    3.9302 2.8607e+09
    3.9426 2.9121e+09
     3.955 2.9642e+09
    3.9674  3.017e+09
    3.9798 3.0704e+09
    3.9922 3.1245e+09
    4.0046 3.1794e+09
     4.017 3.2349e+09
    4.0294 3.2911e+09
    4.0418  3.348e+09
    4.0542 3.4056e+09
    4.0666 3.4639e+09
     4.079 3.5229e+09
    4.0914 3.5826e+09
    4.1038 3.6431e+09
    4.1162 3.7043e+09
    4.1286 3.7662e+09
     4.141 3.8289e+09
    4.1534 3.8923e+09
    4.1658 3.9565e+09
    4.1782 4.0214e+09
    4.1906 4.0871e+09
     4.203 4.1535e+09
    4.2154 4.2207e+09
    4.2278 4.2887e+09
    4.2402 4.3575e+09
    4.2526  4.427e+09
     4.265 4.4973e+09
    4.2774 4.5685e+09
    4.2898 4.6404e+09
    4.3022 4.7131e+09
    4.3146 4.7866e+09
    4.3269  4.861e+09
    4.3393 4.9361e+09
    4.3517 5.0121e+09
    4.3641 5.0889e+09
    4.3765 5.1665e+09
    4.3889 5.2449e+09
    4.4013 5.3243e+09
    4.4137 5.4044e+09
    4.4261 5.4854e+09
    4.4385 5.5673e+09
    4.4509   5.65e+09
    4.4633 5.7335e+09
    4.4757  5.818e+09
    4.4881 5.9033e+09
    4.5005 5.9895e+09
    4.5129 6.0765e+09
    4.5253 6.1645e+09
    4.5377 6.2533e+09
    4.5501 6.3431e+09
    4.5625 6.4338e+09
    4.5749 6.5253e+09
    4.5873 6.6177e+09
    4.5997 6.7111e+09
    4.6121 6.8054e+09
    4.6245 6.9006e+09
    4.6369 6.9968e+09
    4.6493 7.0939e+09
    4.6617 7.1918e+09
    4.6741 7.2908e+09
    4.6865 7.3907e+09
    4.6989 7.4915e+09
    4.7113 7.5933e+09
    4.7237 7.6961e+09
    4.7361 7.7999e+09
    4.7485 7.9045e+09
    4.7609 8.0102e+09
    4.7733 8.1169e+09
    4.7857 8.2245e+09
    4.7981 8.3331e+09
    4.8105 8.4427e+09
    4.8229 8.5533e+09
    4.8353 8.6649e+09
    4.8477 8.7775e+09
    4.8601 8.8911e+09
    4.8725 9.0057e+09
    4.8849 9.1214e+09
    4.8973  9.238e+09
    4.9097 9.3557e+09
    4.9221 9.4744e+09
    4.9345 9.5942e+09
    4.9469  9.715e+09
    4.9593 9.8368e+09
    4.9717 9.9597e+09
     4.984 1.0084e+10
    4.9964 1.0209e+10
    5.0088 1.0335e+10
    5.0212 1.0462e+10
    5.0336  1.059e+10
     5.046 1.0719e+10
    5.0584  1.085e+10
    5.0708 1.0981e+10
    5.0832 1.1113e+10
    5.0956 1.1247e+10
     5.108 1.1382e+10
    5.1204 1.1517e+10
    5.1328 1.1654e+10
    5.1452 1.1792e+10
    5.1576 1.1931e+10
      5.17 1.2072e+10
    5.1824 1.2213e+10
    5.1948 1.2355e+10
    5.2072 1.2499e+10
    5.2196 1.2644e+10
     5.232 1.2789e+10
    5.2444 1.2936e+10
    5.2568 1.3084e+10
    5.2692 1.3234e+10
    5.2816 1.3384e+10
     5.294 1.3536e+10
    5.3064 1.3688e+10
    5.3188 1.3842e+10
    5.3312 1.3997e+10
    5.3436 1.4153e+10
     5.356 1.4311e+10
    5.3684 1.4469e+10
    5.3808 1.4629e+10
    5.3932  1.479e+10
    5.4056 1.4952e+10
     5.418 1.5115e+10
    5.4304  1.528e+10
    5.4428 1.5445e+10
    5.4552 1.5612e+10
    5.4676  1.578e+10
      5.48  1.595e+10
    5.4924  1.612e+10
    5.5048 1.6292e+10
    5.5172 1.6465e+10
    5.5296 1.6639e+10
     5.542 1.6814e+10
    5.5544 1.6991e+10
    5.5668 1.7169e+10
    5.5792 1.7348e+10
    5.5916 1.7528e+10
     5.604  1.771e+10
    5.6164 1.7893e+10
    5.6288 1.8077e+10
    5.6412 1.8262e+10
    5.6535 1.8449e+10
    5.6659 1.8637e+10
    5.6783 1.8826e+10
    5.6907 1.9016e+10
    5.7031 1.9208e+10
    5.7155 1.9401e+10
    5.7279 1.9595e+10
    5.7403  1.979e+10
    5.7527 1.9987e+10
    5.7651 2.0185e+10
    5.7775 2.0384e+10
    5.7899 2.0585e+10
    5.8023 2.0787e+10
    5.8147  2.099e+10
    5.8271 2.1195e+10
    5.8395 2.1401e+10
    5.8519 2.1608e+10
    5.8643 2.1816e+10
    5.8767 2.2026e+10
    5.8891 2.2237e+10
    5.9015  2.245e+10
    5.9139 2.2664e+10
    5.9263 2.2879e+10
    5.9387 2.3095e+10
    5.9511 2.3313e+10
    5.9635 2.3532e+10
    5.9759 2.3752e+10
    5.9883 2.3974e+10
    6.0007 2.4198e+10
    6.0131 2.4422e+10
    6.0255 2.4648e+10
    6.0379 2.4875e+10
    6.0503 2.5104e+10
    6.0627 2.5334e+10
    6.0751 2.5565e+10
    6.0875 2.5797e+10
    6.0999 2.6032e+10
    6.1123 2.6267e+10
    6.1247 2.6504e+10
    6.1371 2.6742e+10
    6.1495 2.6981e+10
    6.1619 2.7222e+10
    6.1743 2.7465e+10
    6.1867 2.7708e+10
    6.1991 2.7954e+10
    6.2115   2.82e+10
    6.2239 2.8448e+10
    6.2363 2.8697e+10
    6.2487 2.8948e+10
    6.2611   2.92e+10
    6.2735 2.9454e+10
    6.2859 2.9709e+10
    6.2983 2.9965e+10
    6.3107 3.0223e+10
     6.323 3.0482e+10
    6.3354 3.0742e+10
    6.3478 3.1004e+10
    6.3602 3.1268e+10
    6.3726 3.1533e+10
     6.385 3.1799e+10
    6.3974 3.2067e+10
    6.4098 3.2336e+10
    6.4222 3.2607e+10
    6.4346 3.2879e+10
     6.447 3.3152e+10
    6.4594 3.3427e+10
    6.4718 3.3704e+10
    6.4842 3.3981e+10
    6.4966 3.4261e+10
     6.509 3.4542e+10
    6.5214 3.4824e+10
    6.5338 3.5107e+10
    6.5462 3.5392e+10
    6.5586 3.5679e+10
     6.571 3.5967e+10
    6.5834 3.6257e+10
    6.5958 3.6548e+10
    6.6082  3.684e+10
    6.6206 3.7134e+10
     6.633  3.743e+10
    6.6454 3.7727e+10
    6.6578 3.8025e+10
    6.6702 3.8325e+10
    6.6826 3.8626e+10
     6.695 3.8929e+10
    6.7074 3.9233e+10
    6.7198 3.9539e+10
    6.7322 3.9847e+10
    6.7446 4.0155e+10
     6.757 4.0466e+10
    6.7694 4.0778e+10
    6.7818 4.1091e+10
    6.7942 4.1406e+10
    6.8066 4.1722e+10
     6.819  4.204e+10
    6.8314 4.2359e+10
    6.8438  4.268e+10
    6.8562 4.3003e+10
    6.8686 4.3326e+10
     6.881 4.3652e+10
    6.8934 4.3979e+10
    6.9058 4.4307e+10
    6.9182 4.4637e+10
    6.9306 4.4969e+10
     6.943 4.5302e+10
    6.9554 4.5636e+10
    6.9678 4.5972e+10
    6.9801  4.631e+10
    6.9925 4.6649e+10
    7.0049  4.699e+10
    7.0173 4.7332e+10
    7.0297 4.7676e+10
    7.0421 4.8021e+10
    7.0545 4.8368e+10
    7.0669 4.8716e+10
    7.0793 4.9066e+10
    7.0917 4.9417e+10
    7.1041 4.9771e+10
    7.1165 5.0125e+10
    7.1289 5.0481e+10
    7.1413 5.0839e+10
    7.1537 5.1198e+10
    7.1661 5.1559e+10
    7.1785 5.1921e+10
    7.1909 5.2285e+10
    7.2033  5.265e+10
    7.2157 5.3017e+10
    7.2281 5.3386e+10
    7.2405 5.3756e+10
    7.2529 5.4128e+10
    7.2653 5.4501e+10
    7.2777 5.4875e+10
    7.2901 5.5252e+10
    7.3025  5.563e+10
    7.3149 5.6009e+10
    7.3273 5.6391e+10
    7.3397 5.6773e+10
    7.3521 5.7157e+10
    7.3645 5.7543e+10
    7.3769  5.793e+10
    7.3893 5.8319e+10
    7.4017  5.871e+10
    7.4141 5.9102e+10
    7.4265 5.9496e+10
    7.4389 5.9891e+10
    7.4513 6.0288e+10
    7.4637 6.0686e+10
    7.4761 6.1086e+10
    7.4885 6.1488e+10
    7.5009 6.1891e+10
    7.5133 6.2296e+10
    7.5257 6.2702e+10
    7.5381  6.311e+10
    7.5505  6.352e+10
    7.5629 6.3931e+10
    7.5753 6.4344e+10
    7.5877 6.4758e+10
    7.6001 6.5174e+10
    7.6125 6.5591e+10
    7.6249 6.6011e+10
    7.6373 6.6431e+10
    7.6496 6.6854e+10
     7.662 6.7278e+10
    7.6744 6.7703e+10
    7.6868  6.813e+10
    7.6992 6.8559e+10
    7.7116 6.8989e+10
     7.724 6.9422e+10
    7.7364 6.9855e+10
    7.7488  7.029e+10
    7.7612 7.0727e+10
    7.7736 7.1165e+10
     7.786 7.1605e+10
    7.7984 7.2047e+10
    7.8108  7.249e+10
    7.8232 7.2935e+10
    7.8356 7.3381e+10
     7.848 7.3829e+10
    7.8604 7.4279e+10
    7.8728  7.473e+10
    7.8852 7.5183e+10
    7.8976 7.5637e+10
      7.91 7.6093e+10
    7.9224 7.6551e+10
    7.9348  7.701e+10
    7.9472 7.7471e+10
    7.9596 7.7934e+10
     7.972 7.8398e+10
    7.9844 7.8864e+10
    7.9968 7.9331e+10
    8.0092   7.98e+10
    8.0216 8.0271e+10
     8.034 8.0743e+10
    8.0464 8.1217e+10
    8.0588 8.1693e+10
    8.0712  8.217e+10
    8.0836 8.2648e+10
     8.096 8.3129e+10
    8.1084 8.3611e+10
    8.1208 8.4094e+10
    8.1332  8.458e+10
    8.1456 8.5066e+10
     8.158 8.5555e+10
    8.1704 8.6045e+10
    8.1828 8.6537e+10
    8.1952  8.703e+10
    8.2076 8.7525e+10
      8.22 8.8022e+10
    8.2324  8.852e+10
    8.2448  8.902e+10
    8.2572 8.9521e+10
    8.2696 9.0025e+10
     8.282 9.0529e+10
    8.2944 9.1036e+10
    8.3067 9.1544e+10
    8.3191 9.2054e+10
    8.3315 9.2565e+10
    8.3439 9.3078e+10
    8.3563 9.3592e+10
    8.3687 9.4108e+10
    8.3811 9.4626e+10
    8.3935 9.5145e+10
    8.4059 9.5667e+10
    8.4183 9.6189e+10
    8.4307 9.6713e+10
    8.4431 9.7239e+10
    8.4555 9.7767e+10
    8.4679 9.8296e+10
    8.4803 9.8827e+10
    8.4927  9.936e+10
    8.5051 9.9894e+10
    8.5175 1.0043e+11
    8.5299 1.0097e+11
    8.5423 1.0151e+11
    8.5547 1.0205e+11
    8.5671 1.0259e+11
    8.5795 1.0313e+11
    8.5919 1.0368e+11
    8.6043 1.0423e+11
    8.6167 1.0477e+11
    8.6291 1.0532e+11
    8.6415 1.0588e+11
    8.6539 1.0643e+11
    8.6663 1.0698e+11
    8.6787 1.0754e+11
    8.6911  1.081e+11
    8.7035 1.0866e+11
    8.7159 1.0922e+11
    8.7283 1.0979e+11
    8.7407 1.1035e+11
    8.7531 1.1092e+11
    8.7655 1.1149e+11
    8.7779 1.1206e+11
    8.7903 1.1263e+11
    8.8027  1.132e+11
    8.8151 1.1378e+11
    8.8275 1.1435e+11
    8.8399 1.1493e+11
    8.8523 1.1551e+11
    8.8647 1.1609e+11
    8.8771 1.1667e+11
    8.8895 1.1726e+11
    8.9019 1.1784e+11
    8.9143 1.1843e+11
    8.9267 1.1902e+11
    8.9391 1.1961e+11
    8.9515 1.2021e+11
    8.9639  1.208e+11
    8.9762  1.214e+11
    8.9886 1.2199e+11
     9.001 1.2259e+11
    9.0134 1.2319e+11
    9.0258  1.238e+11
    9.0382  1.244e+11
    9.0506 1.2501e+11
     9.063 1.2561e+11
    9.0754 1.2622e+11
    9.0878 1.2683e+11
    9.1002 1.2744e+11
    9.1126 1.2806e+11
     9.125 1.2867e+11
    9.1374 1.2929e+11
    9.1498 1.2991e+11
    9.1622 1.3053e+11
    9.1746 1.3115e+11
     9.187 1.3178e+11
    9.1994  1.324e+11
    9.2118 1.3303e+11
    9.2242 1.3365e+11
    9.2366 1.3429e+11
     9.249 1.3492e+11
    9.2614 1.3555e+11
    9.2738 1.3618e+11
    9.2862 1.3682e+11
    9.2986 1.3746e+11
     9.311  1.381e+11
    9.3234 1.3874e+11
    9.3358 1.3938e+11
    9.3482 1.4003e+11
    9.3606 1.4067e+11
     9.373 1.4132e+11
    9.3854 1.4197e+11
    9.3978 1.4262e+11
    9.4102 1.4327e+11
    9.4226 1.4393e+11
     9.435 1.4458e+11
    9.4474 1.4524e+11
    9.4598  1.459e+11
    9.4722 1.4656e+11
    9.4846 1.4722e+11
     9.497 1.4789e+11
    9.5094 1.4855e+11
    9.5218 1.4922e+11
    9.5342 1.4989e+11
    9.5466 1.5056e+11
     9.559 1.5123e+11
    9.5714  1.519e+11
    9.5838 1.5258e+11
    9.5962 1.5325e+11
    9.6086 1.5393e+11
     9.621 1.5461e+11
    9.6333 1.5529e+11
    9.6457 1.5598e+11
    9.6581 1.5666e+11
    9.6705 1.5735e+11
    9.6829 1.5803e+11
    9.6953 1.5872e+11
    9.7077 1.5941e+11
    9.7201 1.6011e+11
    9.7325  1.608e+11
    9.7449  1.615e+11
    9.7573 1.6219e+11
    9.7697 1.6289e+11
    9.7821 1.6359e+11
    9.7945 1.6429e+11
    9.8069   1.65e+11
    9.8193  1.657e+11
    9.8317 1.6641e+11
    9.8441 1.6712e+11
    9.8565 1.6783e+11
    9.8689 1.6854e+11
    9.8813 1.6925e+11
    9.8937 1.6997e+11
    9.9061 1.7068e+11
    9.9185  1.714e+11
    9.9309 1.7212e+11
    9.9433 1.7284e+11
    9.9557 1.7357e+11
    9.9681 1.7429e+11
    9.9805 1.7501e+11
    9.9929 1.7574e+11
    10.005 1.7647e+11
    10.018  1.772e+11
     10.03 1.7793e+11
    10.042 1.7867e+11
    10.055  1.794e+11
    10.067 1.8014e+11
     10.08 1.8088e+11
    10.092 1.8162e+11
    10.104 1.8236e+11
    10.117  1.831e+11
    10.129 1.8384e+11
    10.142 1.8459e+11
    10.154 1.8534e+11
    10.166 1.8609e+11
    10.179 1.8684e+11
    10.191 1.8759e+11
    10.204 1.8834e+11
    10.216  1.891e+11
    10.228 1.8985e+11
    10.241 1.9061e+11
    10.253 1.9137e+11
    10.266 1.9213e+11
    10.278  1.929e+11
     10.29 1.9366e+11
    10.303 1.9443e+11
    10.315  1.952e+11
    10.328 1.9596e+11
     10.34 1.9674e+11
    10.352 1.9751e+11
    10.365 1.9828e+11
    10.377 1.9906e+11
     10.39 1.9983e+11
    10.402 2.0061e+11
    10.414 2.0139e+11
    10.427 2.0217e+11
    10.439 2.0296e+11
    10.452 2.0374e+11
    10.464 2.0453e+11
    10.476 2.0531e+11
    10.489  2.061e+11
    10.501 2.0689e+11
    10.514 2.0769e+11
    10.526 2.0848e+11
    10.538 2.0927e+11
    10.551 2.1007e+11
    10.563 2.1087e+11
    10.576 2.1167e+11
    10.588 2.1247e+11
      10.6 2.1327e+11
    10.613 2.1408e+11
    10.625 2.1488e+11
    10.638 2.1569e+11
     10.65  2.165e+11
    10.662 2.1731e+11
    10.675 2.1812e+11
    10.687 2.1894e+11
      10.7 2.1975e+11
    10.712 2.2057e+11
    10.724 2.2138e+11
    10.737  2.222e+11
    10.749 2.2302e+11
    10.762 2.2385e+11
    10.774 2.2467e+11
    10.786  2.255e+11
    10.799 2.2632e+11
    10.811 2.2715e+11
    10.824 2.2798e+11
    10.836 2.2881e+11
    10.848 2.2964e+11
    10.861 2.3048e+11
    10.873 2.3131e+11
    10.886 2.3215e+11
    10.898 2.3299e+11
     10.91 2.3383e+11
    10.923 2.3467e+11
    10.935 2.3551e+11
    10.948 2.3636e+11
     10.96 2.3721e+11
    10.972 2.3805e+11
    10.985  2.389e+11
    10.997 2.3975e+11
     11.01 2.4061e+11
    11.022 2.4146e+11
    11.034 2.4231e+11
    11.047 2.4317e+11
    11.059 2.4403e+11
    11.072 2.4489e+11
    11.084 2.4575e+11
    11.096 2.4661e+11
    11.109 2.4747e+11
    11.121 2.4834e+11
    11.134 2.4921e+11
    11.146 2.5007e+11
    11.158 2.5094e+11
    11.171 2.5181e+11
    11.183 2.5269e+11
    11.196 2.5356e+11
    11.208 2.5444e+11
     11.22 2.5531e+11
    11.233 2.5619e+11
    11.245 2.5707e+11
    11.258 2.5795e+11
     11.27 2.5883e+11
    11.282 2.5972e+11
    11.295  2.606e+11
    11.307 2.6149e+11
    11.319 2.6238e+11
    11.332 2.6327e+11
    11.344 2.6416e+11
    11.357 2.6505e+11
    11.369 2.6595e+11
    11.381 2.6684e+11
    11.394 2.6774e+11
    11.406 2.6864e+11
    11.419 2.6954e+11
    11.431 2.7044e+11
    11.443 2.7134e+11
    11.456 2.7224e+11
    11.468 2.7315e+11
    11.481 2.7406e+11
    11.493 2.7496e+11
    11.505 2.7587e+11
    11.518 2.7678e+11
     11.53  2.777e+11
    11.543 2.7861e+11
    11.555 2.7953e+11
    11.567 2.8044e+11
     11.58 2.8136e+11
    11.592 2.8228e+11
    11.605  2.832e+11
    11.617 2.8413e+11
    11.629 2.8505e+11
    11.642 2.8597e+11
    11.654  2.869e+11
    11.667 2.8783e+11
    11.679 2.8876e+11
    11.691 2.8969e+11
    11.704 2.9062e+11
    11.716 2.9155e+11
    11.729 2.9249e+11
    11.741 2.9342e+11
    11.753 2.9436e+11
    11.766  2.953e+11
    11.778 2.9624e+11
    11.791 2.9718e+11
    11.803 2.9813e+11
    11.815 2.9907e+11
    11.828 3.0002e+11
     11.84 3.0096e+11
    11.853 3.0191e+11
    11.865 3.0286e+11
    11.877 3.0381e+11
     11.89 3.0477e+11
    11.902 3.0572e+11
    11.915 3.0668e+11
    11.927 3.0763e+11
    11.939 3.0859e+11
    11.952 3.0955e+11
    11.964 3.1051e+11
    11.977 3.1147e+11
    11.989 3.1244e+11
    12.001  3.134e+11
    12.014 3.1437e+11
    12.026 3.1534e+11
    12.039  3.163e+11
    12.051 3.1728e+11
    12.063 3.1825e+11
    12.076 3.1922e+11
    12.088  3.202e+11
    12.101 3.2117e+11
    12.113 3.2215e+11
    12.125 3.2312e+11
    12.138  3.241e+11
     12.15 3.2509e+11
    12.163 3.2607e+11
    12.175 3.2705e+11
    12.187 3.2804e+11
      12.2 3.2902e+11
    12.212 3.3001e+11
    12.225   3.31e+11
    12.237 3.3199e+11
    12.249 3.3298e+11
    12.262 3.3397e+11
    12.274 3.3497e+11
    12.287 3.3596e+11
    12.299 3.3696e+11
    12.311 3.3796e+11
    12.324 3.3896e+11
    12.336 3.3996e+11
    12.349 3.4096e+11
    12.361 3.4197e+11
    12.373 3.4297e+11
    12.386 3.4398e+11
    12.398 3.4498e+11
    12.411 3.4599e+11
    12.423   3.47e+11
    12.435 3.4801e+11
    12.448 3.4903e+11
     12.46 3.5004e+11
    12.473 3.5105e+11
    12.485 3.5207e+11
    12.497 3.5309e+11
     12.51 3.5411e+11
    12.522 3.5513e+11
    12.535 3.5615e+11
    12.547 3.5717e+11
    12.559  3.582e+11
    12.572 3.5922e+11
    12.584 3.6025e+11
    12.597 3.6128e+11
    12.609  3.623e+11
    12.621 3.6333e+11
    12.634 3.6437e+11
    12.646  3.654e+11
    12.658 3.6643e+11
    12.671 3.6747e+11
    12.683 3.6851e+11
    12.696 3.6954e+11
    12.708 3.7058e+11
     12.72 3.7162e+11
    12.733 3.7266e+11
    12.745 3.7371e+11
    12.758 3.7475e+11
     12.77  3.758e+11
    12.782 3.7684e+11
    12.795 3.7789e+11
    12.807 3.7894e+11
     12.82 3.7999e+11
    12.832 3.8104e+11
    12.844  3.821e+11
    12.857 3.8315e+11
    12.869 3.8421e+11
    12.882 3.8526e+11
    12.894 3.8632e+11
    12.906 3.8738e+11
    12.919 3.8844e+11
    12.931  3.895e+11
    12.944 3.9056e+11
    12.956 3.9163e+11
    12.968 3.9269e+11
    12.981 3.9376e+11
    12.993 3.9483e+11
    13.006  3.959e+11
    13.018 3.9697e+11
     13.03 3.9804e+11
    13.043 3.9911e+11
    13.055 4.0018e+11
    13.068 4.0126e+11
     13.08 4.0233e+11
    13.092 4.0341e+11
    13.105 4.0449e+11
    13.117 4.0557e+11
     13.13 4.0665e+11
    13.142 4.0773e+11
    13.154 4.0882e+11
    13.167  4.099e+11
    13.179 4.1099e+11
    13.192 4.1207e+11
    13.204 4.1316e+11
    13.216 4.1425e+11
    13.229 4.1534e+11
    13.241 4.1643e+11
    13.254 4.1753e+11
    13.266 4.1862e+11
    13.278 4.1971e+11
    13.291 4.2081e+11
    13.303 4.2191e+11
    13.316 4.2301e+11
    13.328 4.2411e+11
     13.34 4.2521e+11
    13.353 4.2631e+11
    13.365 4.2741e+11
    13.378 4.2852e+11
     13.39 4.2962e+11
    13.402 4.3073e+11
    13.415 4.3184e+11
    13.427 4.3295e+11
     13.44 4.3406e+11
    13.452 4.3517e+11
    13.464 4.3628e+11
    13.477  4.374e+11
    13.489 4.3851e+11
    13.502 4.3963e+11
    13.514 4.4074e+11
    13.526 4.4186e+11
    13.539 4.4298e+11
    13.551  4.441e+11
    13.564 4.4522e+11
    13.576 4.4635e+11
    13.588 4.4747e+11
    13.601  4.486e+11
    13.613 4.4972e+11
    13.626 4.5085e+11
    13.638 4.5198e+11
     13.65 4.5311e+11
    13.663 4.5424e+11
    13.675 4.5537e+11
    13.688 4.5651e+11
      13.7 4.5764e+11
    13.712 4.5877e+11
    13.725 4.5991e+11
    13.737 4.6105e+11
     13.75 4.6219e+11
    13.762 4.6333e+11
    13.774 4.6447e+11
    13.787 4.6561e+11
    13.799 4.6675e+11
    13.812  4.679e+11
    13.824 4.6904e+11
    13.836 4.7019e+11
    13.849 4.7134e+11
    13.861 4.7248e+11
    13.874 4.7364e+11
    13.886 4.7478e+11
    13.898 4.7594e+11
    13.911 4.7709e+11
    13.923 4.7825e+11
    13.936  4.794e+11
    13.948 4.8055e+11
     13.96 4.8171e+11
    13.973 4.8287e+11
    13.985 4.8403e+11
    13.997 4.8519e+11
     14.01 4.8635e+11
    14.022 4.8751e+11
    14.035 4.8868e+11
    14.047 4.8984e+11
    14.059 4.9101e+11
    14.072 4.9218e+11
    14.084 4.9334e+11
    14.097 4.9451e+11
    14.109 4.9568e+11
    14.121 4.9686e+11
    14.134 4.9803e+11
    14.146  4.992e+11
    14.159 5.0038e+11
    14.171 5.0155e+11
    14.183 5.0273e+11
    14.196 5.0391e+11
    14.208 5.0508e+11
    14.221 5.0626e+11
    14.233 5.0744e+11
    14.245 5.0863e+11
    14.258 5.0981e+11
     14.27 5.1099e+11
    14.283 5.1218e+11
    14.295 5.1336e+11
    14.307 5.1455e+11
     14.32 5.1574e+11
    14.332 5.1693e+11
    14.345 5.1811e+11
    14.357 5.1931e+11
    14.369  5.205e+11
    14.382 5.2169e+11
    14.394 5.2289e+11
    14.407 5.2408e+11
    14.419 5.2528e+11
    14.431 5.2647e+11
    14.444 5.2767e+11
    14.456 5.2887e+11
    14.469 5.3007e+11
    14.481 5.3127e+11
    14.493 5.3248e+11
    14.506 5.3368e+11
    14.518 5.3488e+11
    14.531 5.3609e+11
    14.543  5.373e+11
    14.555  5.385e+11
    14.568 5.3971e+11
     14.58 5.4092e+11
    14.593 5.4213e+11
    14.605 5.4334e+11
    14.617 5.4456e+11
     14.63 5.4577e+11
    14.642 5.4698e+11
    14.655  5.482e+11
    14.667 5.4941e+11
    14.679 5.5063e+11
    14.692 5.5185e+11
    14.704 5.5307e+11
    14.717 5.5429e+11
    14.729 5.5551e+11
    14.741 5.5673e+11
    14.754 5.5795e+11
    14.766 5.5918e+11
    14.779  5.604e+11
    14.791 5.6163e+11
    14.803 5.6286e+11
    14.816 5.6408e+11
    14.828 5.6531e+11
    14.841 5.6654e+11
    14.853 5.6777e+11
    14.865 5.6901e+11
    14.878 5.7024e+11
     14.89 5.7147e+11
    14.903 5.7271e+11
    14.915 5.7394e+11
    14.927 5.7518e+11
     14.94 5.7641e+11
    14.952 5.7765e+11
    14.965 5.7889e+11
    14.977 5.8013e+11
    14.989 5.8138e+11
    15.002 5.8262e+11
    15.014 5.8386e+11
    15.027  5.851e+11
    15.039 5.8635e+11
    15.051  5.876e+11
    15.064 5.8884e+11
    15.076 5.9009e+11
    15.089 5.9134e+11
    15.101 5.9259e+11
    15.113 5.9384e+11
    15.126 5.9509e+11
    15.138 5.9634e+11
    15.151  5.976e+11
    15.163 5.9885e+11
    15.175 6.0011e+11
    15.188 6.0136e+11
      15.2 6.0262e+11
    15.213 6.0388e+11
    15.225 6.0514e+11
    15.237  6.064e+11
     15.25 6.0766e+11
    15.262 6.0892e+11
    15.275 6.1018e+11
    15.287 6.1144e+11
    15.299 6.1271e+11
    15.312 6.1397e+11
    15.324 6.1524e+11
    15.336 6.1651e+11
    15.349 6.1778e+11
    15.361 6.1904e+11
    15.374 6.2031e+11
    15.386 6.2158e+11
    15.398 6.2285e+11
    15.411 6.2413e+11
    15.423  6.254e+11
    15.436 6.2667e+11
    15.448 6.2795e+11
     15.46 6.2923e+11
    15.473  6.305e+11
    15.485 6.3178e+11
    15.498 6.3306e+11
     15.51 6.3434e+11
    15.522 6.3562e+11
    15.535  6.369e+11
    15.547 6.3818e+11
     15.56 6.3946e+11
    15.572 6.4074e+11
    15.584 6.4203e+11
    15.597 6.4332e+11
    15.609 6.4461e+11
    15.622 6.4589e+11
    15.634 6.4718e+11
    15.646 6.4847e+11
    15.659 6.4976e+11
    15.671 6.5104e+11
    15.684 6.5234e+11
    15.696 6.5363e+11
    15.708 6.5492e+11
    15.721 6.5622e+11
    15.733 6.5751e+11
    15.746 6.5881e+11
    15.758  6.601e+11
     15.77  6.614e+11
    15.783  6.627e+11
    15.795   6.64e+11
    15.808 6.6529e+11
     15.82  6.666e+11
    15.832  6.679e+11
    15.845  6.692e+11
    15.857 6.7051e+11
     15.87 6.7181e+11
    15.882 6.7312e+11
    15.894 6.7442e+11
    15.907 6.7572e+11
    15.919 6.7703e+11
    15.932 6.7834e+11
    15.944 6.7965e+11
    15.956 6.8096e+11
    15.969 6.8227e+11
    15.981 6.8358e+11
    15.994 6.8489e+11
    16.006 6.8621e+11
    16.018 6.8752e+11
    16.031 6.8884e+11
    16.043 6.9015e+11
    16.056 6.9147e+11
    16.068 6.9278e+11
     16.08  6.941e+11
    16.093 6.9542e+11
    16.105 6.9674e+11
    16.118 6.9806e+11
     16.13 6.9938e+11
    16.142  7.007e+11
    16.155 7.0202e+11
    16.167 7.0335e+11
     16.18 7.0467e+11
    16.192   7.06e+11
    16.204 7.0732e+11
    16.217 7.0865e+11
    16.229 7.0998e+11
    16.242  7.113e+11
    16.254 7.1263e+11
    16.266 7.1396e+11
    16.279 7.1529e+11
    16.291 7.1662e+11
    16.304 7.1795e+11
    16.316 7.1929e+11
    16.328 7.2062e+11
    16.341 7.2196e+11
    16.353 7.2329e+11
    16.366 7.2463e+11
    16.378 7.2596e+11
     16.39  7.273e+11
    16.403 7.2864e+11
    16.415 7.2998e+11
    16.428 7.3132e+11
     16.44 7.3266e+11
    16.452   7.34e+11
    16.465 7.3534e+11
    16.477 7.3668e+11
     16.49 7.3802e+11
    16.502 7.3937e+11
    16.514 7.4071e+11
    16.527 7.4206e+11
    16.539  7.434e+11
    16.552 7.4475e+11
    16.564  7.461e+11
    16.576 7.4745e+11
    16.589  7.488e+11
    16.601 7.5015e+11
    16.613  7.515e+11
    16.626 7.5285e+11
    16.638  7.542e+11
    16.651 7.5555e+11
    16.663 7.5691e+11
    16.675 7.5826e+11
    16.688 7.5961e+11
      16.7 7.6097e+11
    16.713 7.6233e+11
    16.725 7.6368e+11
    16.737 7.6504e+11
     16.75  7.664e+11
    16.762 7.6776e+11
    16.775 7.6912e+11
    16.787 7.7048e+11
    16.799 7.7184e+11
    16.812 7.7321e+11
    16.824 7.7457e+11
    16.837 7.7593e+11
    16.849  7.773e+11
    16.861 7.7866e+11
    16.874 7.8003e+11
    16.886 7.8139e+11
    16.899 7.8276e+11
    16.911 7.8413e+11
    16.923  7.855e+11
    16.936 7.8686e+11
    16.948 7.8824e+11
    16.961  7.896e+11
    16.973 7.9097e+11
    16.985 7.9235e+11
    16.998 7.9372e+11
     17.01 7.9509e+11
    17.023 7.9647e+11
    17.035 7.9784e+11
    17.047 7.9921e+11
     17.06  8.006e+11
    17.072 8.0197e+11
    17.085 8.0335e+11
    17.097 8.0472e+11
    17.109  8.061e+11
    17.122 8.0748e+11
    17.134 8.0886e+11
    17.147 8.1024e+11
    17.159 8.1163e+11
    17.171 8.1301e+11
    17.184 8.1439e+11
    17.196 8.1577e+11
    17.209 8.1716e+11
    17.221 8.1854e+11
    17.233 8.1993e+11
    17.246 8.2131e+11
    17.258  8.227e+11
    17.271 8.2409e+11
    17.283 8.2547e+11
    17.295 8.2686e+11
    17.308 8.2825e+11
     17.32 8.2964e+11
    17.333 8.3103e+11
    17.345 8.3242e+11
    17.357 8.3382e+11
     17.37 8.3521e+11
    17.382  8.366e+11
    17.395   8.38e+11
    17.407 8.3939e+11
    17.419 8.4078e+11
    17.432 8.4218e+11
    17.444 8.4357e+11
    17.457 8.4497e+11
    17.469 8.4637e+11
    17.481 8.4777e+11
    17.494 8.4917e+11
    17.506 8.5057e+11
    17.519 8.5197e+11
    17.531 8.5337e+11
    17.543 8.5477e+11
    17.556 8.5617e+11
    17.568 8.5757e+11
    17.581 8.5898e+11
    17.593 8.6038e+11
    17.605 8.6178e+11
    17.618 8.6319e+11
     17.63 8.6459e+11
    17.643   8.66e+11
    17.655 8.6741e+11
    17.667 8.6882e+11
     17.68 8.7022e+11
    17.692 8.7163e+11
    17.705 8.7304e+11
    17.717 8.7445e+11
    17.729 8.7586e+11
    17.742 8.7727e+11
    17.754 8.7869e+11
    17.767  8.801e+11
    17.779 8.8151e+11
    17.791 8.8292e+11
    17.804 8.8434e+11
    17.816 8.8575e+11
    17.829 8.8717e+11
    17.841 8.8858e+11
    17.853    8.9e+11
    17.866 8.9142e+11
    17.878 8.9283e+11
    17.891 8.9425e+11
    17.903 8.9567e+11
    17.915 8.9709e+11
    17.928 8.9851e+11
     17.94 8.9993e+11
    17.952 9.0135e+11
    17.965 9.0277e+11
    17.977  9.042e+11
     17.99 9.0562e+11
    18.002 9.0704e+11
    18.014 9.0847e+11
    18.027 9.0989e+11
    18.039 9.1132e+11
    18.052 9.1274e+11
    18.064 9.1417e+11
    18.076 9.1559e+11
    18.089 9.1702e+11
    18.101 9.1845e+11
    18.114 9.1988e+11
    18.126  9.213e+11
    18.138 9.2273e+11
    18.151 9.2417e+11
    18.163  9.256e+11
    18.176 9.2703e+11
    18.188 9.2846e+11
      18.2 9.2989e+11
    18.213 9.3132e+11
    18.225 9.3276e+11
    18.238 9.3419e+11
     18.25 9.3563e+11
    18.262 9.3706e+11
    18.275 9.3849e+11
    18.287 9.3993e+11
      18.3 9.4137e+11
    18.312 9.4281e+11
    18.324 9.4424e+11
    18.337 9.4568e+11
    18.349 9.4712e+11
    18.362 9.4856e+11
    18.374    9.5e+11
    18.386 9.5144e+11
    18.399 9.5289e+11
    18.411 9.5433e+11
    18.424 9.5577e+11
    18.436 9.5721e+11
    18.448 9.5865e+11
    18.461 9.6009e+11
    18.473 9.6154e+11
    18.486 9.6298e+11
    18.498 9.6443e+11
     18.51 9.6587e+11
    18.523 9.6732e+11
    18.535 9.6877e+11
    18.548 9.7021e+11
     18.56 9.7166e+11
    18.572 9.7311e+11
    18.585 9.7456e+11
    18.597 9.7601e+11
     18.61 9.7745e+11
    18.622 9.7891e+11
    18.634 9.8036e+11
    18.647 9.8181e+11
    18.659 9.8326e+11
    18.672 9.8471e+11
    18.684 9.8617e+11
    18.696 9.8762e+11
    18.709 9.8907e+11
    18.721 9.9053e+11
    18.734 9.9198e+11
    18.746 9.9343e+11
    18.758 9.9489e+11
    18.771 9.9635e+11
    18.783  9.978e+11
    18.796 9.9926e+11
    18.808 1.0007e+12
     18.82 1.0022e+12
    18.833 1.0036e+12
    18.845 1.0051e+12
    18.858 1.0066e+12
     18.87  1.008e+12
    18.882 1.0095e+12
    18.895 1.0109e+12
    18.907 1.0124e+12
     18.92 1.0139e+12
    18.932 1.0153e+12
    18.944 1.0168e+12
    18.957 1.0182e+12
    18.969 1.0197e+12
    18.982 1.0212e+12
    18.994 1.0226e+12
    19.006 1.0241e+12
    19.019 1.0256e+12
    19.031  1.027e+12
    19.044 1.0285e+12
    19.056   1.03e+12
    19.068 1.0314e+12
    19.081 1.0329e+12
    19.093 1.0344e+12
    19.106 1.0358e+12
    19.118 1.0373e+12
     19.13 1.0388e+12
    19.143 1.0403e+12
    19.155 1.0417e+12
    19.168 1.0432e+12
     19.18 1.0447e+12
    19.192 1.0461e+12
    19.205 1.0476e+12
    19.217 1.0491e+12
     19.23 1.0506e+12
    19.242  1.052e+12
    19.254 1.0535e+12
    19.267  1.055e+12
    19.279 1.0565e+12
    19.291 1.0579e+12
    19.304 1.0594e+12
    19.316 1.0609e+12
    19.329 1.0624e+12
    19.341 1.0638e+12
    19.353 1.0653e+12
    19.366 1.0668e+12
    19.378 1.0683e+12
    19.391 1.0698e+12
    19.403 1.0712e+12
    19.415 1.0727e+12
    19.428 1.0742e+12
     19.44 1.0757e+12
    19.453 1.0772e+12
    19.465 1.0786e+12
    19.477 1.0801e+12
     19.49 1.0816e+12
    19.502 1.0831e+12
    19.515 1.0846e+12
    19.527 1.0861e+12
    19.539 1.0875e+12
    19.552  1.089e+12
    19.564 1.0905e+12
    19.577  1.092e+12
    19.589 1.0935e+12
    19.601  1.095e+12
    19.614 1.0964e+12
    19.626 1.0979e+12
    19.639 1.0994e+12
    19.651 1.1009e+12
    19.663 1.1024e+12
    19.676 1.1039e+12
    19.688 1.1054e+12
    19.701 1.1069e+12
    19.713 1.1084e+12
    19.725 1.1098e+12
    19.738 1.1113e+12
     19.75 1.1128e+12
    19.763 1.1143e+12
    19.775 1.1158e+12
    19.787 1.1173e+12
      19.8 1.1188e+12
    19.812 1.1203e+12
    19.825 1.1218e+12
    19.837 1.1233e+12
    19.849 1.1248e+12
    19.862 1.1263e+12
    19.874 1.1278e+12
    19.887 1.1293e+12
    19.899 1.1307e+12
    19.911 1.1322e+12
    19.924 1.1337e+12
    19.936 1.1352e+12
    19.949 1.1367e+12
    19.961 1.1382e+12
    19.973 1.1397e+12
    19.986 1.1412e+12
    19.998 1.1427e+12
    20.011 1.1442e+12
    20.023 1.1457e+12
    20.035 1.1472e+12
    20.048 1.1487e+12
     20.06 1.1502e+12
    20.073 1.1517e+12
    20.085 1.1532e+12
    20.097 1.1547e+12
     20.11 1.1562e+12
    20.122 1.1577e+12
    20.135 1.1592e+12
    20.147 1.1607e+12
    20.159 1.1622e+12
    20.172 1.1638e+12
    20.184 1.1653e+12
    20.197 1.1668e+12
    20.209 1.1683e+12
    20.221 1.1698e+12
    20.234 1.1713e+12
    20.246 1.1728e+12
    20.259 1.1743e+12
    20.271 1.1758e+12
    20.283 1.1773e+12
    20.296 1.1788e+12
    20.308 1.1803e+12
    20.321 1.1818e+12
    20.333 1.1833e+12
    20.345 1.1848e+12
    20.358 1.1863e+12
     20.37 1.1879e+12
    20.383 1.1894e+12
    20.395 1.1909e+12
    20.407 1.1924e+12
     20.42 1.1939e+12
    20.432 1.1954e+12
    20.445 1.1969e+12
    20.457 1.1984e+12
    20.469 1.1999e+12
    20.482 1.2015e+12
    20.494  1.203e+12
    20.507 1.2045e+12
    20.519  1.206e+12
    20.531 1.2075e+12
    20.544  1.209e+12
    20.556 1.2105e+12
    20.569 1.2121e+12
    20.581 1.2136e+12
    20.593 1.2151e+12
    20.606 1.2166e+12
    20.618 1.2181e+12
     20.63 1.2196e+12
    20.643 1.2211e+12
    20.655 1.2227e+12
    20.668 1.2242e+12
     20.68 1.2257e+12
    20.692 1.2272e+12
    20.705 1.2287e+12
    20.717 1.2303e+12
     20.73 1.2318e+12
    20.742 1.2333e+12
    20.754 1.2348e+12
    20.767 1.2363e+12
    20.779 1.2378e+12
    20.792 1.2394e+12
    20.804 1.2409e+12
    20.816 1.2424e+12
    20.829 1.2439e+12
    20.841 1.2455e+12
    20.854  1.247e+12
    20.866 1.2485e+12
    20.878   1.25e+12
    20.891 1.2515e+12
    20.903 1.2531e+12
    20.916 1.2546e+12
    20.928 1.2561e+12
     20.94 1.2576e+12
    20.953 1.2592e+12
    20.965 1.2607e+12
    20.978 1.2622e+12
     20.99 1.2637e+12
    21.002 1.2653e+12
    21.015 1.2668e+12
    21.027 1.2683e+12
     21.04 1.2698e+12
    21.052 1.2714e+12
    21.064 1.2729e+12
    21.077 1.2744e+12
    21.089  1.276e+12
    21.102 1.2775e+12
    21.114  1.279e+12
    21.126 1.2805e+12
    21.139 1.2821e+12
    21.151 1.2836e+12
    21.164 1.2851e+12
    21.176 1.2867e+12
    21.188 1.2882e+12
    21.201 1.2897e+12
    21.213 1.2912e+12
    21.226 1.2928e+12
    21.238 1.2943e+12
     21.25 1.2958e+12
    21.263 1.2974e+12
    21.275 1.2989e+12
    21.288 1.3004e+12
      21.3  1.302e+12
    21.312 1.3035e+12
    21.325  1.305e+12
    21.337 1.3066e+12
     21.35 1.3081e+12
    21.362 1.3096e+12
    21.374 1.3112e+12
    21.387 1.3127e+12
    21.399 1.3142e+12
    21.412 1.3158e+12
    21.424 1.3173e+12
    21.436 1.3188e+12
    21.449 1.3204e+12
    21.461 1.3219e+12
    21.474 1.3234e+12
    21.486  1.325e+12
    21.498 1.3265e+12
    21.511  1.328e+12
    21.523 1.3296e+12
    21.536 1.3311e+12
    21.548 1.3327e+12
     21.56 1.3342e+12
    21.573 1.3357e+12
    21.585 1.3373e+12
    21.598 1.3388e+12
     21.61 1.3403e+12
    21.622 1.3419e+12
    21.635 1.3434e+12
    21.647  1.345e+12
     21.66 1.3465e+12
    21.672  1.348e+12
    21.684 1.3496e+12
    21.697 1.3511e+12
    21.709 1.3527e+12
    21.722 1.3542e+12
    21.734 1.3557e+12
    21.746 1.3573e+12
    21.759 1.3588e+12
    21.771 1.3604e+12
    21.784 1.3619e+12
    21.796 1.3634e+12
    21.808  1.365e+12
    21.821 1.3665e+12
    21.833 1.3681e+12
    21.846 1.3696e+12
    21.858 1.3712e+12
     21.87 1.3727e+12
    21.883 1.3742e+12
    21.895 1.3758e+12
    21.908 1.3773e+12
     21.92 1.3789e+12
    21.932 1.3804e+12
    21.945  1.382e+12
    21.957 1.3835e+12
    21.969 1.3851e+12
    21.982 1.3866e+12
    21.994 1.3881e+12
    22.007 1.3897e+12
    22.019 1.3912e+12
    22.031 1.3928e+12
    22.044 1.3943e+12
    22.056 1.3959e+12
    22.069 1.3974e+12
    22.081  1.399e+12
    22.093 1.4005e+12
    22.106 1.4021e+12
    22.118 1.4036e+12
    22.131 1.4052e+12
    22.143 1.4067e+12
    22.155 1.4083e+12
    22.168 1.4098e+12
     22.18 1.4113e+12
    22.193 1.4129e+12
    22.205 1.4144e+12
    22.217  1.416e+12
     22.23 1.4175e+12
    22.242 1.4191e+12
    22.255 1.4206e+12
    22.267 1.4222e+12
    22.279 1.4237e+12
    22.292 1.4253e+12
    22.304 1.4268e+12
    22.317 1.4284e+12
    22.329 1.4299e+12
    22.341 1.4315e+12
    22.354  1.433e+12
    22.366 1.4346e+12
    22.379 1.4362e+12
    22.391 1.4377e+12
    22.403 1.4393e+12
    22.416 1.4408e+12
    22.428 1.4424e+12
    22.441 1.4439e+12
    22.453 1.4455e+12
    22.465  1.447e+12
    22.478 1.4486e+12
     22.49 1.4501e+12
    22.503 1.4517e+12
    22.515 1.4532e+12
    22.527 1.4548e+12
     22.54 1.4563e+12
    22.552 1.4579e+12
    22.565 1.4594e+12
    22.577  1.461e+12
    22.589 1.4626e+12
    22.602 1.4641e+12
    22.614 1.4657e+12
    22.627 1.4672e+12
    22.639 1.4688e+12
    22.651 1.4703e+12
    22.664 1.4719e+12
    22.676 1.4734e+12
    22.689  1.475e+12
    22.701 1.4766e+12
    22.713 1.4781e+12
    22.726 1.4797e+12
    22.738 1.4812e+12
    22.751 1.4828e+12
    22.763 1.4843e+12
    22.775 1.4859e+12
    22.788 1.4874e+12
      22.8  1.489e+12
    22.813 1.4906e+12
    22.825 1.4921e+12
    22.837 1.4937e+12
     22.85 1.4952e+12
    22.862 1.4968e+12
    22.875 1.4984e+12
    22.887 1.4999e+12
    22.899 1.5015e+12
    22.912  1.503e+12
    22.924 1.5046e+12
    22.937 1.5061e+12
    22.949 1.5077e+12
    22.961 1.5093e+12
    22.974 1.5108e+12
    22.986 1.5124e+12
    22.999 1.5139e+12
    23.011 1.5155e+12
    23.023 1.5171e+12
    23.036 1.5186e+12
    23.048 1.5202e+12
    23.061 1.5217e+12
    23.073 1.5233e+12
    23.085 1.5249e+12
    23.098 1.5264e+12
     23.11  1.528e+12
    23.123 1.5296e+12
    23.135 1.5311e+12
    23.147 1.5327e+12
     23.16 1.5342e+12
    23.172 1.5358e+12
    23.185 1.5374e+12
    23.197 1.5389e+12
    23.209 1.5405e+12
    23.222  1.542e+12
    23.234 1.5436e+12
    23.247 1.5452e+12
    23.259 1.5467e+12
    23.271 1.5483e+12
    23.284 1.5499e+12
    23.296 1.5514e+12
    23.308  1.553e+12
    23.321 1.5545e+12
    23.333 1.5561e+12
    23.346 1.5577e+12
    23.358 1.5592e+12
     23.37 1.5608e+12
    23.383 1.5624e+12
    23.395 1.5639e+12
    23.408 1.5655e+12
     23.42 1.5671e+12
    23.432 1.5686e+12
    23.445 1.5702e+12
    23.457 1.5718e+12
     23.47 1.5733e+12
    23.482 1.5749e+12
    23.494 1.5765e+12
    23.507  1.578e+12
    23.519 1.5796e+12
    23.532 1.5812e+12
    23.544 1.5827e+12
    23.556 1.5843e+12
    23.569 1.5858e+12
    23.581 1.5874e+12
    23.594  1.589e+12
    23.606 1.5905e+12
    23.618 1.5921e+12
    23.631 1.5937e+12
    23.643 1.5952e+12
    23.656 1.5968e+12
    23.668 1.5984e+12
     23.68 1.5999e+12
    23.693 1.6015e+12
    23.705 1.6031e+12
    23.718 1.6046e+12
     23.73 1.6062e+12
    23.742 1.6078e+12
    23.755 1.6093e+12
    23.767 1.6109e+12
     23.78 1.6125e+12
    23.792  1.614e+12
    23.804 1.6156e+12
    23.817 1.6172e+12
    23.829 1.6188e+12
    23.842 1.6203e+12
    23.854 1.6219e+12
    23.866 1.6235e+12
    23.879  1.625e+12
    23.891 1.6266e+12
    23.904 1.6282e+12
    23.916 1.6297e+12
    23.928 1.6313e+12
    23.941 1.6329e+12
    23.953 1.6344e+12
    23.966  1.636e+12
    23.978 1.6376e+12
     23.99 1.6391e+12
    24.003 1.6407e+12
    24.015 1.6423e+12
    24.028 1.6438e+12
     24.04 1.6454e+12
    24.052  1.647e+12
    24.065 1.6486e+12
    24.077 1.6501e+12
     24.09 1.6517e+12
    24.102 1.6533e+12
    24.114 1.6548e+12
    24.127 1.6564e+12
    24.139  1.658e+12
    24.152 1.6595e+12
    24.164 1.6611e+12
    24.176 1.6627e+12
    24.189 1.6642e+12
    24.201 1.6658e+12
    24.214 1.6674e+12
    24.226  1.669e+12
    24.238 1.6705e+12
    24.251 1.6721e+12
    24.263 1.6737e+12
    24.276 1.6752e+12
    24.288 1.6768e+12
      24.3 1.6784e+12
    24.313   1.68e+12
    24.325 1.6815e+12
    24.338 1.6831e+12
     24.35 1.6847e+12
    24.362 1.6862e+12
    24.375 1.6878e+12
    24.387 1.6894e+12
      24.4  1.691e+12
    24.412 1.6925e+12
    24.424 1.6941e+12
    24.437 1.6957e+12
    24.449 1.6972e+12
    24.462 1.6988e+12
    24.474 1.7004e+12
    24.486  1.702e+12
    24.499 1.7035e+12
    24.511 1.7051e+12
    24.524 1.7067e+12
    24.536 1.7083e+12
    24.548 1.7098e+12
    24.561 1.7114e+12
    24.573  1.713e+12
    24.585 1.7145e+12
    24.598 1.7161e+12
     24.61 1.7177e+12
    24.623 1.7193e+12
    24.635 1.7208e+12
    24.647 1.7224e+12
     24.66  1.724e+12
    24.672 1.7256e+12
    24.685 1.7271e+12
    24.697 1.7287e+12
    24.709 1.7303e+12
    24.722 1.7318e+12
    24.734 1.7334e+12
    24.747  1.735e+12
    24.759 1.7366e+12
    24.771 1.7381e+12
    24.784 1.7397e+12
    24.796 1.7413e+12
    24.809 1.7429e+12
    24.821 1.7444e+12
    24.833  1.746e+12
    24.846 1.7476e+12
    24.858 1.7492e+12
    24.871 1.7507e+12
    24.883 1.7523e+12
    24.895 1.7539e+12
    24.908 1.7554e+12
     24.92  1.757e+12
    24.933 1.7586e+12
    24.945 1.7602e+12
    24.957 1.7617e+12
     24.97 1.7633e+12
    24.982 1.7649e+12
    24.995 1.7665e+12
    25.007  1.768e+12
    25.019 1.7696e+12
    25.032 1.7712e+12
    25.044 1.7728e+12
    25.057 1.7743e+12
    25.069 1.7759e+12
    25.081 1.7775e+12
    25.094 1.7791e+12
    25.106 1.7806e+12
    25.119 1.7822e+12
    25.131 1.7838e+12
    25.143 1.7854e+12
    25.156 1.7869e+12
    25.168 1.7885e+12
    25.181 1.7901e+12
    25.193 1.7917e+12
    25.205 1.7932e+12
    25.218 1.7948e+12
     25.23 1.7964e+12
    25.243  1.798e+12
    25.255 1.7995e+12
    25.267 1.8011e+12
     25.28 1.8027e+12
    25.292 1.8043e+12
    25.305 1.8058e+12
    25.317 1.8074e+12
    25.329  1.809e+12
    25.342 1.8105e+12
    25.354 1.8121e+12
    25.367 1.8137e+12
    25.379 1.8153e+12
    25.391 1.8169e+12
    25.404 1.8184e+12
    25.416   1.82e+12
    25.429 1.8216e+12
    25.441 1.8231e+12
    25.453 1.8247e+12
    25.466 1.8263e+12
    25.478 1.8279e+12
    25.491 1.8294e+12
    25.503  1.831e+12
    25.515 1.8326e+12
    25.528 1.8342e+12
     25.54 1.8358e+12
    25.553 1.8373e+12
    25.565 1.8389e+12
    25.577 1.8405e+12
     25.59 1.8421e+12
    25.602 1.8436e+12
    25.615 1.8452e+12
    25.627 1.8468e+12
    25.639 1.8484e+12
    25.652 1.8499e+12
    25.664 1.8515e+12
    25.677 1.8531e+12
    25.689 1.8547e+12
    25.701 1.8562e+12
    25.714 1.8578e+12
    25.726 1.8594e+12
    25.739  1.861e+12
    25.751 1.8625e+12
    25.763 1.8641e+12
    25.776 1.8657e+12
    25.788 1.8672e+12
    25.801 1.8688e+12
    25.813 1.8704e+12
    25.825  1.872e+12
    25.838 1.8736e+12
     25.85 1.8751e+12
    25.863 1.8767e+12
    25.875 1.8783e+12
    25.887 1.8799e+12
      25.9 1.8814e+12
    25.912  1.883e+12
    25.924 1.8846e+12
    25.937 1.8862e+12
    25.949 1.8877e+12
    25.962 1.8893e+12
    25.974 1.8909e+12
    25.986 1.8925e+12
    25.999  1.894e+12
    26.011 1.8956e+12
    26.024 1.8972e+12
    26.036 1.8988e+12
    26.048 1.9003e+12
    26.061 1.9019e+12
    26.073 1.9035e+12
    26.086 1.9051e+12
    26.098 1.9066e+12
     26.11 1.9082e+12
    26.123 1.9098e+12
    26.135 1.9114e+12
    26.148 1.9129e+12
     26.16 1.9145e+12
    26.172 1.9161e+12
    26.185 1.9177e+12
    26.197 1.9192e+12
     26.21 1.9208e+12
    26.222 1.9224e+12
    26.234  1.924e+12
    26.247 1.9255e+12
    26.259 1.9271e+12
    26.272 1.9287e+12
    26.284 1.9303e+12
    26.296 1.9318e+12
    26.309 1.9334e+12
    26.321  1.935e+12
    26.334 1.9365e+12
    26.346 1.9381e+12
    26.358 1.9397e+12
    26.371 1.9413e+12
    26.383 1.9429e+12
    26.396 1.9444e+12
    26.408  1.946e+12
     26.42 1.9476e+12
    26.433 1.9491e+12
    26.445 1.9507e+12
    26.458 1.9523e+12
     26.47 1.9539e+12
    26.482 1.9554e+12
    26.495  1.957e+12
    26.507 1.9586e+12
     26.52 1.9602e+12
    26.532 1.9617e+12
    26.544 1.9633e+12
    26.557 1.9649e+12
    26.569 1.9665e+12
    26.582  1.968e+12
    26.594 1.9696e+12
    26.606 1.9712e+12
    26.619 1.9728e+12
    26.631 1.9743e+12
    26.644 1.9759e+12
    26.656 1.9775e+12
    26.668  1.979e+12
    26.681 1.9806e+12
    26.693 1.9822e+12
    26.706 1.9838e+12
    26.718 1.9854e+12
     26.73 1.9869e+12
    26.743 1.9885e+12
    26.755 1.9901e+12
    26.768 1.9916e+12
     26.78 1.9932e+12
    26.792 1.9948e+12
    26.805 1.9964e+12
    26.817 1.9979e+12
     26.83 1.9995e+12
    26.842 2.0011e+12
    26.854 2.0027e+12
    26.867 2.0042e+12
    26.879 2.0058e+12
    26.892 2.0074e+12
    26.904 2.0089e+12
    26.916 2.0105e+12
    26.929 2.0121e+12
    26.941 2.0137e+12
    26.954 2.0152e+12
    26.966 2.0168e+12
    26.978 2.0184e+12
    26.991   2.02e+12
    27.003 2.0215e+12
    27.016 2.0231e+12
    27.028 2.0247e+12
     27.04 2.0262e+12
    27.053 2.0278e+12
    27.065 2.0294e+12
    27.078  2.031e+12
     27.09 2.0325e+12
    27.102 2.0341e+12
    27.115 2.0357e+12
    27.127 2.0372e+12
     27.14 2.0388e+12
    27.152 2.0404e+12
    27.164  2.042e+12
    27.177 2.0435e+12
    27.189 2.0451e+12
    27.202 2.0467e+12
    27.214 2.0483e+12
    27.226 2.0498e+12
    27.239 2.0514e+12
    27.251  2.053e+12
    27.263 2.0545e+12
    27.276 2.0561e+12
    27.288 2.0577e+12
    27.301 2.0593e+12
    27.313 2.0608e+12
    27.325 2.0624e+12
    27.338  2.064e+12
     27.35 2.0655e+12
    27.363 2.0671e+12
    27.375 2.0687e+12
    27.387 2.0703e+12
      27.4 2.0718e+12
    27.412 2.0734e+12
    27.425  2.075e+12
    27.437 2.0765e+12
    27.449 2.0781e+12
    27.462 2.0797e+12
    27.474 2.0812e+12
    27.487 2.0828e+12
    27.499 2.0844e+12
    27.511  2.086e+12
    27.524 2.0875e+12
    27.536 2.0891e+12
    27.549 2.0907e+12
    27.561 2.0922e+12
    27.573 2.0938e+12
    27.586 2.0954e+12
    27.598 2.0969e+12
    27.611 2.0985e+12
    27.623 2.1001e+12
    27.635 2.1017e+12
    27.648 2.1032e+12
     27.66 2.1048e+12
    27.673 2.1064e+12
    27.685 2.1079e+12
    27.697 2.1095e+12
     27.71 2.1111e+12
    27.722 2.1126e+12
    27.735 2.1142e+12
    27.747 2.1158e+12
    27.759 2.1173e+12
    27.772 2.1189e+12
    27.784 2.1205e+12
    27.797  2.122e+12
    27.809 2.1236e+12
    27.821 2.1252e+12
    27.834 2.1268e+12
    27.846 2.1283e+12
    27.859 2.1299e+12
    27.871 2.1315e+12
    27.883  2.133e+12
    27.896 2.1346e+12
    27.908 2.1362e+12
    27.921 2.1377e+12
    27.933 2.1393e+12
    27.945 2.1409e+12
    27.958 2.1424e+12
     27.97  2.144e+12
    27.983 2.1456e+12
    27.995 2.1471e+12
    28.007 2.1487e+12
     28.02 2.1503e+12
    28.032 2.1518e+12
    28.045 2.1534e+12
    28.057  2.155e+12
    28.069 2.1565e+12
    28.082 2.1581e+12
    28.094 2.1597e+12
    28.107 2.1612e+12
    28.119 2.1628e+12
    28.131 2.1644e+12
    28.144 2.1659e+12
    28.156 2.1675e+12
    28.169 2.1691e+12
    28.181 2.1706e+12
    28.193 2.1722e+12
    28.206 2.1738e+12
    28.218 2.1753e+12
    28.231 2.1769e+12
    28.243 2.1785e+12
    28.255   2.18e+12
    28.268 2.1816e+12
     28.28 2.1832e+12
    28.293 2.1847e+12
    28.305 2.1863e+12
    28.317 2.1879e+12
     28.33 2.1894e+12
    28.342  2.191e+12
    28.355 2.1925e+12
    28.367 2.1941e+12
    28.379 2.1957e+12
    28.392 2.1972e+12
    28.404 2.1988e+12
    28.417 2.2004e+12
    28.429 2.2019e+12
    28.441 2.2035e+12
    28.454 2.2051e+12
    28.466 2.2066e+12
    28.479 2.2082e+12
    28.491 2.2098e+12
    28.503 2.2113e+12
    28.516 2.2129e+12
    28.528 2.2144e+12
    28.541  2.216e+12
    28.553 2.2176e+12
    28.565 2.2191e+12
    28.578 2.2207e+12
     28.59 2.2223e+12
    28.602 2.2238e+12
    28.615 2.2254e+12
    28.627  2.227e+12
     28.64 2.2285e+12
    28.652 2.2301e+12
    28.664 2.2316e+12
    28.677 2.2332e+12
    28.689 2.2348e+12
    28.702 2.2363e+12
    28.714 2.2379e+12
    28.726 2.2395e+12
    28.739  2.241e+12
    28.751 2.2426e+12
    28.764 2.2441e+12
    28.776 2.2457e+12
    28.788 2.2472e+12
    28.801 2.2488e+12
    28.813 2.2504e+12
    28.826 2.2519e+12
    28.838 2.2535e+12
     28.85 2.2551e+12
    28.863 2.2566e+12
    28.875 2.2582e+12
    28.888 2.2597e+12
      28.9 2.2613e+12
    28.912 2.2629e+12
    28.925 2.2644e+12
    28.937  2.266e+12
     28.95 2.2675e+12
    28.962 2.2691e+12
    28.974 2.2707e+12
    28.987 2.2722e+12
    28.999 2.2738e+12
    29.012 2.2753e+12
    29.024 2.2769e+12
    29.036 2.2785e+12
    29.049   2.28e+12
    29.061 2.2816e+12
    29.074 2.2831e+12
    29.086 2.2847e+12
    29.098 2.2862e+12
    29.111 2.2878e+12
    29.123 2.2894e+12
    29.136 2.2909e+12
    29.148 2.2925e+12
     29.16  2.294e+12
    29.173 2.2956e+12
    29.185 2.2971e+12
    29.198 2.2987e+12
     29.21 2.3003e+12
    29.222 2.3018e+12
    29.235 2.3034e+12
    29.247 2.3049e+12
     29.26 2.3065e+12
    29.272  2.308e+12
    29.284 2.3096e+12
    29.297 2.3112e+12
    29.309 2.3127e+12
    29.322 2.3143e+12
    29.334 2.3158e+12
    29.346 2.3174e+12
    29.359 2.3189e+12
    29.371 2.3205e+12
    29.384 2.3221e+12
    29.396 2.3236e+12
    29.408 2.3252e+12
    29.421 2.3267e+12
    29.433 2.3283e+12
    29.446 2.3298e+12
    29.458 2.3314e+12
     29.47 2.3329e+12
    29.483 2.3345e+12
    29.495  2.336e+12
    29.508 2.3376e+12
     29.52 2.3392e+12
    29.532 2.3407e+12
    29.545 2.3423e+12
    29.557 2.3438e+12
     29.57 2.3454e+12
    29.582 2.3469e+12
    29.594 2.3485e+12
    29.607   2.35e+12
    29.619 2.3516e+12
    29.632 2.3531e+12
    29.644 2.3547e+12
    29.656 2.3562e+12
    29.669 2.3578e+12
    29.681 2.3594e+12
    29.694 2.3609e+12
    29.706 2.3625e+12
    29.718  2.364e+12
    29.731 2.3655e+12
    29.743 2.3671e+12
    29.756 2.3687e+12
    29.768 2.3702e+12
     29.78 2.3718e+12
    29.793 2.3733e+12
    29.805 2.3749e+12
    29.818 2.3764e+12
     29.83  2.378e+12
    29.842 2.3795e+12
    29.855 2.3811e+12
    29.867 2.3826e+12
     29.88 2.3842e+12
    29.892 2.3857e+12
    29.904 2.3873e+12
    29.917 2.3888e+12
    29.929 2.3904e+12
    29.941 2.3919e+12
    29.954 2.3935e+12
    29.966  2.395e+12
    29.979 2.3966e+12
    29.991 2.3981e+12
    30.003 2.3997e+12
