RRKM rate, sf=0.970, S*=-13.53, E0=0.82 and Delta=0.00
   En (eV)    k (s-1)
         0          0
  0.012398          0
  0.024796          0
  0.037194          0
  0.049593          0
  0.061991          0
  0.074389          0
  0.086787          0
  0.099185          0
   0.11158          0
   0.12398          0
   0.13638          0
   0.14878          0
   0.16118          0
   0.17357          0
   0.18597          0
   0.19837          0
   0.21077          0
   0.22317          0
   0.23556          0
   0.24796          0
   0.26036          0
   0.27276          0
   0.28516          0
   0.29756          0
   0.30995          0
   0.32235          0
   0.33475          0
   0.34715          0
   0.35955          0
   0.37194          0
   0.38434          0
   0.39674          0
   0.40914          0
   0.42154          0
   0.43393          0
   0.44633          0
   0.45873          0
   0.47113          0
   0.48353          0
   0.49593          0
   0.50832          0
   0.52072          0
   0.53312          0
   0.54552          0
   0.55792          0
   0.57031          0
   0.58271          0
   0.59511          0
   0.60751          0
   0.61991          0
    0.6323          0
    0.6447          0
    0.6571          0
    0.6695          0
    0.6819          0
    0.6943          0
   0.70669          0
   0.71909          0
   0.73149          0
   0.74389          0
   0.75629          0
   0.76868          0
   0.78108          0
   0.79348          0
   0.80588          0
   0.81828          0
   0.83067      12.95
   0.84307     30.251
   0.85547     70.785
   0.86787     122.89
   0.88027     206.76
   0.89267     320.32
   0.90506     482.18
   0.91746     704.68
   0.92986     997.97
   0.94226     1391.9
   0.95466     1891.6
   0.96705     2538.1
   0.97945     3343.7
   0.99185     4355.9
    1.0042       5600
    1.0166     7126.2
     1.029     8978.2
    1.0414      11208
    1.0538      13879
    1.0662      17051
    1.0786      20803
     1.091      25209
    1.1034      30364
    1.1158      36359
    1.1282      43304
    1.1406      51312
     1.153      60509
    1.1654      71031
    1.1778      83025
    1.1902      96649
    1.2026 1.1207e+05
     1.215 1.2948e+05
    1.2274 1.4907e+05
    1.2398 1.7106e+05
    1.2522 1.9565e+05
    1.2646  2.231e+05
     1.277 2.5367e+05
    1.2894 2.8761e+05
    1.3018 3.2522e+05
    1.3142 3.6681e+05
    1.3266 4.1269e+05
     1.339  4.632e+05
    1.3514 5.1872e+05
    1.3638  5.796e+05
    1.3762 6.4626e+05
    1.3886 7.1911e+05
     1.401 7.9858e+05
    1.4134 8.8515e+05
    1.4258  9.793e+05
    1.4382 1.0815e+06
    1.4506 1.1924e+06
     1.463 1.3123e+06
    1.4754 1.4421e+06
    1.4878 1.5821e+06
    1.5002 1.7332e+06
    1.5126 1.8958e+06
     1.525 2.0708e+06
    1.5374 2.2587e+06
    1.5498 2.4603e+06
    1.5622 2.6765e+06
    1.5746 2.9079e+06
     1.587 3.1554e+06
    1.5994 3.4198e+06
    1.6118 3.7019e+06
    1.6242 4.0028e+06
    1.6366 4.3233e+06
     1.649 4.6644e+06
    1.6613 5.0271e+06
    1.6737 5.4124e+06
    1.6861 5.8213e+06
    1.6985 6.2549e+06
    1.7109 6.7144e+06
    1.7233 7.2009e+06
    1.7357 7.7155e+06
    1.7481 8.2595e+06
    1.7605 8.8342e+06
    1.7729 9.4408e+06
    1.7853 1.0081e+07
    1.7977 1.0755e+07
    1.8101 1.1465e+07
    1.8225 1.2213e+07
    1.8349    1.3e+07
    1.8473 1.3826e+07
    1.8597 1.4695e+07
    1.8721 1.5607e+07
    1.8845 1.6564e+07
    1.8969 1.7567e+07
    1.9093 1.8619e+07
    1.9217 1.9721e+07
    1.9341 2.0874e+07
    1.9465 2.2081e+07
    1.9589 2.3343e+07
    1.9713 2.4662e+07
    1.9837  2.604e+07
    1.9961 2.7479e+07
    2.0085 2.8981e+07
    2.0209 3.0547e+07
    2.0333  3.218e+07
    2.0457 3.3882e+07
    2.0581 3.5655e+07
    2.0705 3.7501e+07
    2.0829 3.9422e+07
    2.0953 4.1421e+07
    2.1077   4.35e+07
    2.1201  4.566e+07
    2.1325 4.7904e+07
    2.1449 5.0235e+07
    2.1573 5.2655e+07
    2.1697 5.5167e+07
    2.1821 5.7772e+07
    2.1945 6.0474e+07
    2.2069 6.3274e+07
    2.2193 6.6176e+07
    2.2317 6.9182e+07
    2.2441 7.2294e+07
    2.2565 7.5516e+07
    2.2689 7.8849e+07
    2.2813 8.2297e+07
    2.2937 8.5863e+07
    2.3061  8.955e+07
    2.3185 9.3359e+07
    2.3308 9.7294e+07
    2.3432 1.0136e+08
    2.3556 1.0556e+08
     2.368 1.0989e+08
    2.3804 1.1435e+08
    2.3928 1.1896e+08
    2.4052 1.2372e+08
    2.4176 1.2862e+08
      2.43 1.3367e+08
    2.4424 1.3887e+08
    2.4548 1.4424e+08
    2.4672 1.4976e+08
    2.4796 1.5544e+08
     2.492 1.6129e+08
    2.5044 1.6731e+08
    2.5168  1.735e+08
    2.5292 1.7987e+08
    2.5416 1.8642e+08
     2.554 1.9316e+08
    2.5664 2.0008e+08
    2.5788 2.0719e+08
    2.5912 2.1449e+08
    2.6036 2.2199e+08
     2.616  2.297e+08
    2.6284 2.3761e+08
    2.6408 2.4572e+08
    2.6532 2.5405e+08
    2.6656  2.626e+08
     2.678 2.7136e+08
    2.6904 2.8035e+08
    2.7028 2.8956e+08
    2.7152 2.9901e+08
    2.7276 3.0869e+08
      2.74 3.1861e+08
    2.7524 3.2877e+08
    2.7648 3.3918e+08
    2.7772 3.4984e+08
    2.7896 3.6076e+08
     2.802 3.7193e+08
    2.8144 3.8337e+08
    2.8268 3.9507e+08
    2.8392 4.0704e+08
    2.8516 4.1929e+08
     2.864 4.3182e+08
    2.8764 4.4463e+08
    2.8888 4.5773e+08
    2.9012 4.7112e+08
    2.9136 4.8481e+08
     2.926 4.9879e+08
    2.9384 5.1308e+08
    2.9508 5.2768e+08
    2.9632  5.426e+08
    2.9756 5.5783e+08
     2.988 5.7338e+08
    3.0003 5.8926e+08
    3.0127 6.0546e+08
    3.0251 6.2201e+08
    3.0375 6.3889e+08
    3.0499 6.5612e+08
    3.0623 6.7369e+08
    3.0747 6.9162e+08
    3.0871 7.0991e+08
    3.0995 7.2855e+08
    3.1119 7.4756e+08
    3.1243 7.6695e+08
    3.1367 7.8671e+08
    3.1491 8.0684e+08
    3.1615 8.2737e+08
    3.1739 8.4828e+08
    3.1863 8.6959e+08
    3.1987  8.913e+08
    3.2111 9.1341e+08
    3.2235 9.3592e+08
    3.2359 9.5885e+08
    3.2483  9.822e+08
    3.2607  1.006e+09
    3.2731 1.0302e+09
    3.2855 1.0548e+09
    3.2979 1.0799e+09
    3.3103 1.1054e+09
    3.3227 1.1313e+09
    3.3351 1.1577e+09
    3.3475 1.1846e+09
    3.3599 1.2119e+09
    3.3723 1.2397e+09
    3.3847 1.2679e+09
    3.3971 1.2966e+09
    3.4095 1.3258e+09
    3.4219 1.3555e+09
    3.4343 1.3857e+09
    3.4467 1.4164e+09
    3.4591 1.4476e+09
    3.4715 1.4792e+09
    3.4839 1.5114e+09
    3.4963 1.5441e+09
    3.5087 1.5774e+09
    3.5211 1.6111e+09
    3.5335 1.6454e+09
    3.5459 1.6802e+09
    3.5583 1.7155e+09
    3.5707 1.7514e+09
    3.5831 1.7878e+09
    3.5955 1.8248e+09
    3.6079 1.8624e+09
    3.6203 1.9005e+09
    3.6327 1.9392e+09
    3.6451 1.9784e+09
    3.6574 2.0183e+09
    3.6698 2.0587e+09
    3.6822 2.0997e+09
    3.6946 2.1413e+09
     3.707 2.1835e+09
    3.7194 2.2263e+09
    3.7318 2.2697e+09
    3.7442 2.3137e+09
    3.7566 2.3583e+09
     3.769 2.4036e+09
    3.7814 2.4495e+09
    3.7938  2.496e+09
    3.8062 2.5432e+09
    3.8186  2.591e+09
     3.831 2.6394e+09
    3.8434 2.6885e+09
    3.8558 2.7383e+09
    3.8682 2.7887e+09
    3.8806 2.8398e+09
     3.893 2.8916e+09
    3.9054  2.944e+09
    3.9178 2.9972e+09
    3.9302  3.051e+09
    3.9426 3.1055e+09
     3.955 3.1607e+09
    3.9674 3.2167e+09
    3.9798 3.2733e+09
    3.9922 3.3306e+09
    4.0046 3.3887e+09
     4.017 3.4475e+09
    4.0294  3.507e+09
    4.0418 3.5672e+09
    4.0542 3.6282e+09
    4.0666 3.6899e+09
     4.079 3.7524e+09
    4.0914 3.8157e+09
    4.1038 3.8796e+09
    4.1162 3.9444e+09
    4.1286 4.0099e+09
     4.141 4.0762e+09
    4.1534 4.1433e+09
    4.1658 4.2112e+09
    4.1782 4.2798e+09
    4.1906 4.3492e+09
     4.203 4.4195e+09
    4.2154 4.4905e+09
    4.2278 4.5623e+09
    4.2402  4.635e+09
    4.2526 4.7085e+09
     4.265 4.7828e+09
    4.2774 4.8579e+09
    4.2898 4.9339e+09
    4.3022 5.0107e+09
    4.3146 5.0883e+09
    4.3269 5.1668e+09
    4.3393 5.2461e+09
    4.3517 5.3263e+09
    4.3641 5.4074e+09
    4.3765 5.4893e+09
    4.3889 5.5721e+09
    4.4013 5.6558e+09
    4.4137 5.7403e+09
    4.4261 5.8258e+09
    4.4385 5.9121e+09
    4.4509 5.9993e+09
    4.4633 6.0874e+09
    4.4757 6.1765e+09
    4.4881 6.2664e+09
    4.5005 6.3573e+09
    4.5129  6.449e+09
    4.5253 6.5417e+09
    4.5377 6.6353e+09
    4.5501 6.7299e+09
    4.5625 6.8254e+09
    4.5749 6.9218e+09
    4.5873 7.0192e+09
    4.5997 7.1176e+09
    4.6121 7.2168e+09
    4.6245 7.3171e+09
    4.6369 7.4183e+09
    4.6493 7.5205e+09
    4.6617 7.6237e+09
    4.6741 7.7278e+09
    4.6865 7.8329e+09
    4.6989  7.939e+09
    4.7113 8.0461e+09
    4.7237 8.1543e+09
    4.7361 8.2634e+09
    4.7485 8.3734e+09
    4.7609 8.4846e+09
    4.7733 8.5967e+09
    4.7857 8.7099e+09
    4.7981  8.824e+09
    4.8105 8.9392e+09
    4.8229 9.0555e+09
    4.8353 9.1728e+09
    4.8477 9.2911e+09
    4.8601 9.4105e+09
    4.8725 9.5309e+09
    4.8849 9.6524e+09
    4.8973 9.7749e+09
    4.9097 9.8985e+09
    4.9221 1.0023e+10
    4.9345 1.0149e+10
    4.9469 1.0276e+10
    4.9593 1.0404e+10
    4.9717 1.0533e+10
     4.984 1.0663e+10
    4.9964 1.0794e+10
    5.0088 1.0926e+10
    5.0212 1.1059e+10
    5.0336 1.1194e+10
     5.046  1.133e+10
    5.0584 1.1466e+10
    5.0708 1.1604e+10
    5.0832 1.1743e+10
    5.0956 1.1883e+10
     5.108 1.2024e+10
    5.1204 1.2167e+10
    5.1328  1.231e+10
    5.1452 1.2455e+10
    5.1576   1.26e+10
      5.17 1.2747e+10
    5.1824 1.2895e+10
    5.1948 1.3045e+10
    5.2072 1.3195e+10
    5.2196 1.3347e+10
     5.232 1.3499e+10
    5.2444 1.3653e+10
    5.2568 1.3808e+10
    5.2692 1.3965e+10
    5.2816 1.4122e+10
     5.294 1.4281e+10
    5.3064 1.4441e+10
    5.3188 1.4602e+10
    5.3312 1.4764e+10
    5.3436 1.4927e+10
     5.356 1.5092e+10
    5.3684 1.5258e+10
    5.3808 1.5425e+10
    5.3932 1.5593e+10
    5.4056 1.5763e+10
     5.418 1.5934e+10
    5.4304 1.6106e+10
    5.4428 1.6279e+10
    5.4552 1.6453e+10
    5.4676 1.6629e+10
      5.48 1.6806e+10
    5.4924 1.6984e+10
    5.5048 1.7164e+10
    5.5172 1.7344e+10
    5.5296 1.7526e+10
     5.542  1.771e+10
    5.5544 1.7894e+10
    5.5668  1.808e+10
    5.5792 1.8267e+10
    5.5916 1.8455e+10
     5.604 1.8645e+10
    5.6164 1.8836e+10
    5.6288 1.9028e+10
    5.6412 1.9222e+10
    5.6535 1.9416e+10
    5.6659 1.9612e+10
    5.6783  1.981e+10
    5.6907 2.0009e+10
    5.7031 2.0209e+10
    5.7155  2.041e+10
    5.7279 2.0613e+10
    5.7403 2.0816e+10
    5.7527 2.1022e+10
    5.7651 2.1228e+10
    5.7775 2.1436e+10
    5.7899 2.1646e+10
    5.8023 2.1856e+10
    5.8147 2.2068e+10
    5.8271 2.2281e+10
    5.8395 2.2496e+10
    5.8519 2.2712e+10
    5.8643 2.2929e+10
    5.8767 2.3148e+10
    5.8891 2.3368e+10
    5.9015 2.3589e+10
    5.9139 2.3812e+10
    5.9263 2.4036e+10
    5.9387 2.4262e+10
    5.9511 2.4489e+10
    5.9635 2.4717e+10
    5.9759 2.4946e+10
    5.9883 2.5177e+10
    6.0007  2.541e+10
    6.0131 2.5644e+10
    6.0255 2.5879e+10
    6.0379 2.6115e+10
    6.0503 2.6353e+10
    6.0627 2.6593e+10
    6.0751 2.6833e+10
    6.0875 2.7075e+10
    6.0999 2.7319e+10
    6.1123 2.7564e+10
    6.1247  2.781e+10
    6.1371 2.8058e+10
    6.1495 2.8307e+10
    6.1619 2.8558e+10
    6.1743  2.881e+10
    6.1867 2.9064e+10
    6.1991 2.9318e+10
    6.2115 2.9575e+10
    6.2239 2.9832e+10
    6.2363 3.0092e+10
    6.2487 3.0353e+10
    6.2611 3.0614e+10
    6.2735 3.0878e+10
    6.2859 3.1143e+10
    6.2983 3.1409e+10
    6.3107 3.1677e+10
     6.323 3.1946e+10
    6.3354 3.2217e+10
    6.3478  3.249e+10
    6.3602 3.2763e+10
    6.3726 3.3038e+10
     6.385 3.3315e+10
    6.3974 3.3593e+10
    6.4098 3.3873e+10
    6.4222 3.4154e+10
    6.4346 3.4436e+10
     6.447  3.472e+10
    6.4594 3.5006e+10
    6.4718 3.5293e+10
    6.4842 3.5581e+10
    6.4966 3.5871e+10
     6.509 3.6162e+10
    6.5214 3.6455e+10
    6.5338  3.675e+10
    6.5462 3.7045e+10
    6.5586 3.7343e+10
     6.571 3.7642e+10
    6.5834 3.7942e+10
    6.5958 3.8244e+10
    6.6082 3.8547e+10
    6.6206 3.8852e+10
     6.633 3.9159e+10
    6.6454 3.9467e+10
    6.6578 3.9776e+10
    6.6702 4.0087e+10
    6.6826 4.0399e+10
     6.695 4.0713e+10
    6.7074 4.1029e+10
    6.7198 4.1346e+10
    6.7322 4.1664e+10
    6.7446 4.1984e+10
     6.757 4.2306e+10
    6.7694 4.2629e+10
    6.7818 4.2954e+10
    6.7942  4.328e+10
    6.8066 4.3608e+10
     6.819 4.3937e+10
    6.8314 4.4268e+10
    6.8438   4.46e+10
    6.8562 4.4934e+10
    6.8686 4.5269e+10
     6.881 4.5606e+10
    6.8934 4.5945e+10
    6.9058 4.6285e+10
    6.9182 4.6627e+10
    6.9306  4.697e+10
     6.943 4.7314e+10
    6.9554 4.7661e+10
    6.9678 4.8009e+10
    6.9801 4.8358e+10
    6.9925 4.8709e+10
    7.0049 4.9061e+10
    7.0173 4.9416e+10
    7.0297 4.9771e+10
    7.0421 5.0128e+10
    7.0545 5.0487e+10
    7.0669 5.0847e+10
    7.0793 5.1209e+10
    7.0917 5.1573e+10
    7.1041 5.1938e+10
    7.1165 5.2305e+10
    7.1289 5.2673e+10
    7.1413 5.3043e+10
    7.1537 5.3414e+10
    7.1661 5.3787e+10
    7.1785 5.4162e+10
    7.1909 5.4538e+10
    7.2033 5.4915e+10
    7.2157 5.5295e+10
    7.2281 5.5675e+10
    7.2405 5.6058e+10
    7.2529 5.6442e+10
    7.2653 5.6828e+10
    7.2777 5.7215e+10
    7.2901 5.7604e+10
    7.3025 5.7994e+10
    7.3149 5.8386e+10
    7.3273  5.878e+10
    7.3397 5.9175e+10
    7.3521 5.9572e+10
    7.3645 5.9971e+10
    7.3769 6.0371e+10
    7.3893 6.0772e+10
    7.4017 6.1176e+10
    7.4141 6.1581e+10
    7.4265 6.1987e+10
    7.4389 6.2395e+10
    7.4513 6.2805e+10
    7.4637 6.3216e+10
    7.4761 6.3629e+10
    7.4885 6.4043e+10
    7.5009 6.4459e+10
    7.5133 6.4877e+10
    7.5257 6.5296e+10
    7.5381 6.5717e+10
    7.5505  6.614e+10
    7.5629 6.6564e+10
    7.5753  6.699e+10
    7.5877 6.7417e+10
    7.6001 6.7846e+10
    7.6125 6.8277e+10
    7.6249 6.8709e+10
    7.6373 6.9143e+10
    7.6496 6.9579e+10
     7.662 7.0016e+10
    7.6744 7.0454e+10
    7.6868 7.0895e+10
    7.6992 7.1337e+10
    7.7116 7.1781e+10
     7.724 7.2226e+10
    7.7364 7.2673e+10
    7.7488 7.3121e+10
    7.7612 7.3571e+10
    7.7736 7.4024e+10
     7.786 7.4477e+10
    7.7984 7.4932e+10
    7.8108 7.5388e+10
    7.8232 7.5846e+10
    7.8356 7.6306e+10
     7.848 7.6768e+10
    7.8604 7.7231e+10
    7.8728 7.7696e+10
    7.8852 7.8163e+10
    7.8976 7.8631e+10
      7.91   7.91e+10
    7.9224 7.9572e+10
    7.9348 8.0045e+10
    7.9472 8.0519e+10
    7.9596 8.0996e+10
     7.972 8.1474e+10
    7.9844 8.1953e+10
    7.9968 8.2434e+10
    8.0092 8.2917e+10
    8.0216 8.3402e+10
     8.034 8.3888e+10
    8.0464 8.4376e+10
    8.0588 8.4865e+10
    8.0712 8.5356e+10
    8.0836 8.5849e+10
     8.096 8.6343e+10
    8.1084 8.6839e+10
    8.1208 8.7336e+10
    8.1332 8.7836e+10
    8.1456 8.8337e+10
     8.158 8.8839e+10
    8.1704 8.9344e+10
    8.1828 8.9849e+10
    8.1952 9.0357e+10
    8.2076 9.0866e+10
      8.22 9.1376e+10
    8.2324 9.1889e+10
    8.2448 9.2403e+10
    8.2572 9.2918e+10
    8.2696 9.3436e+10
     8.282 9.3955e+10
    8.2944 9.4476e+10
    8.3067 9.4998e+10
    8.3191 9.5522e+10
    8.3315 9.6047e+10
    8.3439 9.6574e+10
    8.3563 9.7103e+10
    8.3687 9.7634e+10
    8.3811 9.8166e+10
    8.3935 9.8699e+10
    8.4059 9.9235e+10
    8.4183 9.9772e+10
    8.4307 1.0031e+11
    8.4431 1.0085e+11
    8.4555 1.0139e+11
    8.4679 1.0194e+11
    8.4803 1.0248e+11
    8.4927 1.0303e+11
    8.5051 1.0358e+11
    8.5175 1.0413e+11
    8.5299 1.0468e+11
    8.5423 1.0523e+11
    8.5547 1.0579e+11
    8.5671 1.0634e+11
    8.5795  1.069e+11
    8.5919 1.0746e+11
    8.6043 1.0803e+11
    8.6167 1.0859e+11
    8.6291 1.0915e+11
    8.6415 1.0972e+11
    8.6539 1.1029e+11
    8.6663 1.1086e+11
    8.6787 1.1143e+11
    8.6911   1.12e+11
    8.7035 1.1258e+11
    8.7159 1.1315e+11
    8.7283 1.1373e+11
    8.7407 1.1431e+11
    8.7531 1.1489e+11
    8.7655 1.1548e+11
    8.7779 1.1606e+11
    8.7903 1.1665e+11
    8.8027 1.1724e+11
    8.8151 1.1783e+11
    8.8275 1.1842e+11
    8.8399 1.1901e+11
    8.8523  1.196e+11
    8.8647  1.202e+11
    8.8771  1.208e+11
    8.8895  1.214e+11
    8.9019   1.22e+11
    8.9143  1.226e+11
    8.9267 1.2321e+11
    8.9391 1.2381e+11
    8.9515 1.2442e+11
    8.9639 1.2503e+11
    8.9762 1.2564e+11
    8.9886 1.2625e+11
     9.001 1.2687e+11
    9.0134 1.2748e+11
    9.0258  1.281e+11
    9.0382 1.2872e+11
    9.0506 1.2934e+11
     9.063 1.2996e+11
    9.0754 1.3059e+11
    9.0878 1.3121e+11
    9.1002 1.3184e+11
    9.1126 1.3247e+11
     9.125  1.331e+11
    9.1374 1.3373e+11
    9.1498 1.3437e+11
    9.1622   1.35e+11
    9.1746 1.3564e+11
     9.187 1.3628e+11
    9.1994 1.3692e+11
    9.2118 1.3756e+11
    9.2242  1.382e+11
    9.2366 1.3885e+11
     9.249 1.3949e+11
    9.2614 1.4014e+11
    9.2738 1.4079e+11
    9.2862 1.4144e+11
    9.2986  1.421e+11
     9.311 1.4275e+11
    9.3234 1.4341e+11
    9.3358 1.4407e+11
    9.3482 1.4473e+11
    9.3606 1.4539e+11
     9.373 1.4605e+11
    9.3854 1.4672e+11
    9.3978 1.4738e+11
    9.4102 1.4805e+11
    9.4226 1.4872e+11
     9.435 1.4939e+11
    9.4474 1.5006e+11
    9.4598 1.5074e+11
    9.4722 1.5141e+11
    9.4846 1.5209e+11
     9.497 1.5277e+11
    9.5094 1.5345e+11
    9.5218 1.5413e+11
    9.5342 1.5482e+11
    9.5466  1.555e+11
     9.559 1.5619e+11
    9.5714 1.5688e+11
    9.5838 1.5757e+11
    9.5962 1.5826e+11
    9.6086 1.5895e+11
     9.621 1.5965e+11
    9.6333 1.6035e+11
    9.6457 1.6104e+11
    9.6581 1.6174e+11
    9.6705 1.6245e+11
    9.6829 1.6315e+11
    9.6953 1.6385e+11
    9.7077 1.6456e+11
    9.7201 1.6527e+11
    9.7325 1.6598e+11
    9.7449 1.6669e+11
    9.7573  1.674e+11
    9.7697 1.6812e+11
    9.7821 1.6883e+11
    9.7945 1.6955e+11
    9.8069 1.7027e+11
    9.8193 1.7099e+11
    9.8317 1.7171e+11
    9.8441 1.7243e+11
    9.8565 1.7316e+11
    9.8689 1.7389e+11
    9.8813 1.7462e+11
    9.8937 1.7535e+11
    9.9061 1.7608e+11
    9.9185 1.7681e+11
    9.9309 1.7755e+11
    9.9433 1.7828e+11
    9.9557 1.7902e+11
    9.9681 1.7976e+11
    9.9805  1.805e+11
    9.9929 1.8124e+11
    10.005 1.8199e+11
    10.018 1.8273e+11
     10.03 1.8348e+11
    10.042 1.8423e+11
    10.055 1.8498e+11
    10.067 1.8573e+11
     10.08 1.8649e+11
    10.092 1.8724e+11
    10.104   1.88e+11
    10.117 1.8876e+11
    10.129 1.8952e+11
    10.142 1.9028e+11
    10.154 1.9104e+11
    10.166 1.9181e+11
    10.179 1.9257e+11
    10.191 1.9334e+11
    10.204 1.9411e+11
    10.216 1.9488e+11
    10.228 1.9565e+11
    10.241 1.9643e+11
    10.253  1.972e+11
    10.266 1.9798e+11
    10.278 1.9876e+11
     10.29 1.9954e+11
    10.303 2.0032e+11
    10.315  2.011e+11
    10.328 2.0189e+11
     10.34 2.0267e+11
    10.352 2.0346e+11
    10.365 2.0425e+11
    10.377 2.0504e+11
     10.39 2.0584e+11
    10.402 2.0663e+11
    10.414 2.0743e+11
    10.427 2.0822e+11
    10.439 2.0902e+11
    10.452 2.0982e+11
    10.464 2.1062e+11
    10.476 2.1143e+11
    10.489 2.1223e+11
    10.501 2.1304e+11
    10.514 2.1384e+11
    10.526 2.1465e+11
    10.538 2.1546e+11
    10.551 2.1628e+11
    10.563 2.1709e+11
    10.576 2.1791e+11
    10.588 2.1872e+11
      10.6 2.1954e+11
    10.613 2.2036e+11
    10.625 2.2118e+11
    10.638 2.2201e+11
     10.65 2.2283e+11
    10.662 2.2366e+11
    10.675 2.2448e+11
    10.687 2.2531e+11
      10.7 2.2614e+11
    10.712 2.2698e+11
    10.724 2.2781e+11
    10.737 2.2864e+11
    10.749 2.2948e+11
    10.762 2.3032e+11
    10.774 2.3116e+11
    10.786   2.32e+11
    10.799 2.3284e+11
    10.811 2.3368e+11
    10.824 2.3453e+11
    10.836 2.3538e+11
    10.848 2.3622e+11
    10.861 2.3707e+11
    10.873 2.3793e+11
    10.886 2.3878e+11
    10.898 2.3963e+11
     10.91 2.4049e+11
    10.923 2.4135e+11
    10.935  2.422e+11
    10.948 2.4307e+11
     10.96 2.4393e+11
    10.972 2.4479e+11
    10.985 2.4565e+11
    10.997 2.4652e+11
     11.01 2.4739e+11
    11.022 2.4826e+11
    11.034 2.4913e+11
    11.047    2.5e+11
    11.059 2.5087e+11
    11.072 2.5175e+11
    11.084 2.5262e+11
    11.096  2.535e+11
    11.109 2.5438e+11
    11.121 2.5526e+11
    11.134 2.5615e+11
    11.146 2.5703e+11
    11.158 2.5791e+11
    11.171  2.588e+11
    11.183 2.5969e+11
    11.196 2.6058e+11
    11.208 2.6147e+11
     11.22 2.6236e+11
    11.233 2.6325e+11
    11.245 2.6415e+11
    11.258 2.6505e+11
     11.27 2.6594e+11
    11.282 2.6684e+11
    11.295 2.6774e+11
    11.307 2.6865e+11
    11.319 2.6955e+11
    11.332 2.7045e+11
    11.344 2.7136e+11
    11.357 2.7227e+11
    11.369 2.7318e+11
    11.381 2.7409e+11
    11.394   2.75e+11
    11.406 2.7592e+11
    11.419 2.7683e+11
    11.431 2.7775e+11
    11.443 2.7867e+11
    11.456 2.7959e+11
    11.468 2.8051e+11
    11.481 2.8143e+11
    11.493 2.8235e+11
    11.505 2.8328e+11
    11.518  2.842e+11
     11.53 2.8513e+11
    11.543 2.8606e+11
    11.555 2.8699e+11
    11.567 2.8792e+11
     11.58 2.8886e+11
    11.592 2.8979e+11
    11.605 2.9073e+11
    11.617 2.9167e+11
    11.629  2.926e+11
    11.642 2.9355e+11
    11.654 2.9449e+11
    11.667 2.9543e+11
    11.679 2.9638e+11
    11.691 2.9732e+11
    11.704 2.9827e+11
    11.716 2.9922e+11
    11.729 3.0017e+11
    11.741 3.0112e+11
    11.753 3.0207e+11
    11.766 3.0303e+11
    11.778 3.0398e+11
    11.791 3.0494e+11
    11.803  3.059e+11
    11.815 3.0686e+11
    11.828 3.0782e+11
     11.84 3.0878e+11
    11.853 3.0974e+11
    11.865 3.1071e+11
    11.877 3.1168e+11
     11.89 3.1264e+11
    11.902 3.1361e+11
    11.915 3.1458e+11
    11.927 3.1556e+11
    11.939 3.1653e+11
    11.952  3.175e+11
    11.964 3.1848e+11
    11.977 3.1946e+11
    11.989 3.2044e+11
    12.001 3.2142e+11
    12.014  3.224e+11
    12.026 3.2338e+11
    12.039 3.2436e+11
    12.051 3.2535e+11
    12.063 3.2634e+11
    12.076 3.2732e+11
    12.088 3.2832e+11
    12.101  3.293e+11
    12.113  3.303e+11
    12.125 3.3129e+11
    12.138 3.3229e+11
     12.15 3.3328e+11
    12.163 3.3428e+11
    12.175 3.3528e+11
    12.187 3.3628e+11
      12.2 3.3728e+11
    12.212 3.3828e+11
    12.225 3.3928e+11
    12.237 3.4029e+11
    12.249  3.413e+11
    12.262  3.423e+11
    12.274 3.4331e+11
    12.287 3.4432e+11
    12.299 3.4534e+11
    12.311 3.4635e+11
    12.324 3.4736e+11
    12.336 3.4838e+11
    12.349  3.494e+11
    12.361 3.5042e+11
    12.373 3.5144e+11
    12.386 3.5246e+11
    12.398 3.5348e+11
    12.411  3.545e+11
    12.423 3.5553e+11
    12.435 3.5655e+11
    12.448 3.5758e+11
     12.46 3.5861e+11
    12.473 3.5964e+11
    12.485 3.6067e+11
    12.497  3.617e+11
     12.51 3.6273e+11
    12.522 3.6377e+11
    12.535 3.6481e+11
    12.547 3.6584e+11
    12.559 3.6688e+11
    12.572 3.6792e+11
    12.584 3.6896e+11
    12.597 3.7001e+11
    12.609 3.7105e+11
    12.621 3.7209e+11
    12.634 3.7314e+11
    12.646 3.7419e+11
    12.658 3.7524e+11
    12.671 3.7629e+11
    12.683 3.7734e+11
    12.696 3.7839e+11
    12.708 3.7945e+11
     12.72  3.805e+11
    12.733 3.8156e+11
    12.745 3.8261e+11
    12.758 3.8367e+11
     12.77 3.8474e+11
    12.782 3.8579e+11
    12.795 3.8686e+11
    12.807 3.8792e+11
     12.82 3.8899e+11
    12.832 3.9005e+11
    12.844 3.9112e+11
    12.857 3.9219e+11
    12.869 3.9326e+11
    12.882 3.9433e+11
    12.894  3.954e+11
    12.906 3.9648e+11
    12.919 3.9755e+11
    12.931 3.9863e+11
    12.944  3.997e+11
    12.956 4.0078e+11
    12.968 4.0186e+11
    12.981 4.0294e+11
    12.993 4.0403e+11
    13.006 4.0511e+11
    13.018 4.0619e+11
     13.03 4.0728e+11
    13.043 4.0836e+11
    13.055 4.0945e+11
    13.068 4.1054e+11
     13.08 4.1163e+11
    13.092 4.1272e+11
    13.105 4.1382e+11
    13.117 4.1491e+11
     13.13 4.1601e+11
    13.142  4.171e+11
    13.154  4.182e+11
    13.167  4.193e+11
    13.179  4.204e+11
    13.192  4.215e+11
    13.204  4.226e+11
    13.216 4.2371e+11
    13.229 4.2481e+11
    13.241 4.2592e+11
    13.254 4.2703e+11
    13.266 4.2813e+11
    13.278 4.2924e+11
    13.291 4.3035e+11
    13.303 4.3146e+11
    13.316 4.3258e+11
    13.328 4.3369e+11
     13.34  4.348e+11
    13.353 4.3592e+11
    13.365 4.3704e+11
    13.378 4.3816e+11
     13.39 4.3928e+11
    13.402  4.404e+11
    13.415 4.4152e+11
    13.427 4.4264e+11
     13.44 4.4377e+11
    13.452 4.4489e+11
    13.464 4.4602e+11
    13.477 4.4715e+11
    13.489 4.4828e+11
    13.502 4.4941e+11
    13.514 4.5054e+11
    13.526 4.5167e+11
    13.539  4.528e+11
    13.551 4.5394e+11
    13.564 4.5507e+11
    13.576 4.5621e+11
    13.588 4.5735e+11
    13.601 4.5849e+11
    13.613 4.5963e+11
    13.626 4.6077e+11
    13.638 4.6191e+11
     13.65 4.6305e+11
    13.663  4.642e+11
    13.675 4.6534e+11
    13.688 4.6649e+11
      13.7 4.6764e+11
    13.712 4.6879e+11
    13.725 4.6994e+11
    13.737 4.7109e+11
     13.75 4.7224e+11
    13.762  4.734e+11
    13.774 4.7455e+11
    13.787 4.7571e+11
    13.799 4.7686e+11
    13.812 4.7802e+11
    13.824 4.7918e+11
    13.836 4.8034e+11
    13.849  4.815e+11
    13.861 4.8266e+11
    13.874 4.8383e+11
    13.886 4.8499e+11
    13.898 4.8615e+11
    13.911 4.8732e+11
    13.923 4.8849e+11
    13.936 4.8966e+11
    13.948 4.9083e+11
     13.96   4.92e+11
    13.973 4.9317e+11
    13.985 4.9434e+11
    13.997 4.9552e+11
     14.01 4.9669e+11
    14.022 4.9787e+11
    14.035 4.9905e+11
    14.047 5.0022e+11
    14.059  5.014e+11
    14.072 5.0258e+11
    14.084 5.0377e+11
    14.097 5.0495e+11
    14.109 5.0613e+11
    14.121 5.0732e+11
    14.134  5.085e+11
    14.146 5.0969e+11
    14.159 5.1088e+11
    14.171 5.1207e+11
    14.183 5.1325e+11
    14.196 5.1444e+11
    14.208 5.1564e+11
    14.221 5.1683e+11
    14.233 5.1802e+11
    14.245 5.1922e+11
    14.258 5.2041e+11
     14.27 5.2161e+11
    14.283 5.2281e+11
    14.295 5.2401e+11
    14.307 5.2521e+11
     14.32 5.2641e+11
    14.332 5.2761e+11
    14.345 5.2881e+11
    14.357 5.3002e+11
    14.369 5.3122e+11
    14.382 5.3243e+11
    14.394 5.3364e+11
    14.407 5.3485e+11
    14.419 5.3606e+11
    14.431 5.3726e+11
    14.444 5.3848e+11
    14.456 5.3969e+11
    14.469  5.409e+11
    14.481 5.4212e+11
    14.493 5.4333e+11
    14.506 5.4455e+11
    14.518 5.4577e+11
    14.531 5.4698e+11
    14.543  5.482e+11
    14.555 5.4942e+11
    14.568 5.5064e+11
     14.58 5.5187e+11
    14.593 5.5309e+11
    14.605 5.5431e+11
    14.617 5.5554e+11
     14.63 5.5676e+11
    14.642 5.5799e+11
    14.655 5.5922e+11
    14.667 5.6045e+11
    14.679 5.6168e+11
    14.692 5.6291e+11
    14.704 5.6414e+11
    14.717 5.6537e+11
    14.729 5.6661e+11
    14.741 5.6784e+11
    14.754 5.6908e+11
    14.766 5.7031e+11
    14.779 5.7155e+11
    14.791 5.7279e+11
    14.803 5.7403e+11
    14.816 5.7527e+11
    14.828 5.7651e+11
    14.841 5.7775e+11
    14.853   5.79e+11
    14.865 5.8024e+11
    14.878 5.8149e+11
     14.89 5.8273e+11
    14.903 5.8398e+11
    14.915 5.8523e+11
    14.927 5.8648e+11
     14.94 5.8773e+11
    14.952 5.8898e+11
    14.965 5.9023e+11
    14.977 5.9148e+11
    14.989 5.9274e+11
    15.002 5.9399e+11
    15.014 5.9524e+11
    15.027  5.965e+11
    15.039 5.9776e+11
    15.051 5.9902e+11
    15.064 6.0028e+11
    15.076 6.0154e+11
    15.089  6.028e+11
    15.101 6.0406e+11
    15.113 6.0532e+11
    15.126 6.0659e+11
    15.138 6.0785e+11
    15.151 6.0912e+11
    15.163 6.1038e+11
    15.175 6.1165e+11
    15.188 6.1292e+11
      15.2 6.1419e+11
    15.213 6.1546e+11
    15.225 6.1673e+11
    15.237   6.18e+11
     15.25 6.1927e+11
    15.262 6.2055e+11
    15.275 6.2182e+11
    15.287  6.231e+11
    15.299 6.2437e+11
    15.312 6.2565e+11
    15.324 6.2693e+11
    15.336 6.2821e+11
    15.349 6.2949e+11
    15.361 6.3077e+11
    15.374 6.3205e+11
    15.386 6.3333e+11
    15.398 6.3462e+11
    15.411  6.359e+11
    15.423 6.3719e+11
    15.436 6.3847e+11
    15.448 6.3976e+11
     15.46 6.4105e+11
    15.473 6.4233e+11
    15.485 6.4362e+11
    15.498 6.4491e+11
     15.51 6.4621e+11
    15.522  6.475e+11
    15.535 6.4879e+11
    15.547 6.5008e+11
     15.56 6.5138e+11
    15.572 6.5267e+11
    15.584 6.5397e+11
    15.597 6.5527e+11
    15.609 6.5657e+11
    15.622 6.5786e+11
    15.634 6.5916e+11
    15.646 6.6047e+11
    15.659 6.6177e+11
    15.671 6.6306e+11
    15.684 6.6437e+11
    15.696 6.6567e+11
    15.708 6.6698e+11
    15.721 6.6828e+11
    15.733 6.6959e+11
    15.746  6.709e+11
    15.758 6.7221e+11
     15.77 6.7352e+11
    15.783 6.7483e+11
    15.795 6.7613e+11
    15.808 6.7745e+11
     15.82 6.7876e+11
    15.832 6.8007e+11
    15.845 6.8139e+11
    15.857  6.827e+11
     15.87 6.8401e+11
    15.882 6.8533e+11
    15.894 6.8665e+11
    15.907 6.8796e+11
    15.919 6.8928e+11
    15.932  6.906e+11
    15.944 6.9192e+11
    15.956 6.9325e+11
    15.969 6.9457e+11
    15.981 6.9589e+11
    15.994 6.9721e+11
    16.006 6.9854e+11
    16.018 6.9986e+11
    16.031 7.0119e+11
    16.043 7.0251e+11
    16.056 7.0384e+11
    16.068 7.0517e+11
     16.08  7.065e+11
    16.093 7.0783e+11
    16.105 7.0916e+11
    16.118 7.1049e+11
     16.13 7.1182e+11
    16.142 7.1315e+11
    16.155 7.1449e+11
    16.167 7.1582e+11
     16.18 7.1716e+11
    16.192 7.1849e+11
    16.204 7.1983e+11
    16.217 7.2117e+11
    16.229  7.225e+11
    16.242 7.2384e+11
    16.254 7.2518e+11
    16.266 7.2652e+11
    16.279 7.2787e+11
    16.291 7.2921e+11
    16.304 7.3055e+11
    16.316 7.3189e+11
    16.328 7.3324e+11
    16.341 7.3458e+11
    16.353 7.3593e+11
    16.366 7.3727e+11
    16.378 7.3862e+11
     16.39 7.3997e+11
    16.403 7.4132e+11
    16.415 7.4267e+11
    16.428 7.4402e+11
     16.44 7.4537e+11
    16.452 7.4672e+11
    16.465 7.4807e+11
    16.477 7.4942e+11
     16.49 7.5078e+11
    16.502 7.5214e+11
    16.514 7.5349e+11
    16.527 7.5484e+11
    16.539  7.562e+11
    16.552 7.5756e+11
    16.564 7.5892e+11
    16.576 7.6028e+11
    16.589 7.6163e+11
    16.601   7.63e+11
    16.613 7.6436e+11
    16.626 7.6572e+11
    16.638 7.6708e+11
    16.651 7.6845e+11
    16.663 7.6981e+11
    16.675 7.7117e+11
    16.688 7.7254e+11
      16.7 7.7391e+11
    16.713 7.7527e+11
    16.725 7.7664e+11
    16.737 7.7801e+11
     16.75 7.7938e+11
    16.762 7.8075e+11
    16.775 7.8212e+11
    16.787 7.8349e+11
    16.799 7.8486e+11
    16.812 7.8623e+11
    16.824 7.8761e+11
    16.837 7.8898e+11
    16.849 7.9036e+11
    16.861 7.9173e+11
    16.874  7.931e+11
    16.886 7.9448e+11
    16.899 7.9586e+11
    16.911 7.9724e+11
    16.923 7.9862e+11
    16.936 7.9999e+11
    16.948 8.0138e+11
    16.961 8.0275e+11
    16.973 8.0413e+11
    16.985 8.0552e+11
    16.998  8.069e+11
     17.01 8.0829e+11
    17.023 8.0967e+11
    17.035 8.1105e+11
    17.047 8.1243e+11
     17.06 8.1383e+11
    17.072 8.1521e+11
    17.085  8.166e+11
    17.097 8.1799e+11
    17.109 8.1937e+11
    17.122 8.2076e+11
    17.134 8.2215e+11
    17.147 8.2355e+11
    17.159 8.2494e+11
    17.171 8.2633e+11
    17.184 8.2772e+11
    17.196 8.2911e+11
    17.209 8.3051e+11
    17.221  8.319e+11
    17.233  8.333e+11
    17.246 8.3469e+11
    17.258 8.3608e+11
    17.271 8.3748e+11
    17.283 8.3888e+11
    17.295 8.4028e+11
    17.308 8.4168e+11
     17.32 8.4308e+11
    17.333 8.4448e+11
    17.345 8.4588e+11
    17.357 8.4728e+11
     17.37 8.4868e+11
    17.382 8.5009e+11
    17.395 8.5149e+11
    17.407 8.5289e+11
    17.419  8.543e+11
    17.432 8.5571e+11
    17.444 8.5711e+11
    17.457 8.5852e+11
    17.469 8.5992e+11
    17.481 8.6133e+11
    17.494 8.6274e+11
    17.506 8.6415e+11
    17.519 8.6556e+11
    17.531 8.6697e+11
    17.543 8.6838e+11
    17.556 8.6979e+11
    17.568  8.712e+11
    17.581 8.7261e+11
    17.593 8.7403e+11
    17.605 8.7544e+11
    17.618 8.7686e+11
     17.63 8.7827e+11
    17.643 8.7969e+11
    17.655  8.811e+11
    17.667 8.8252e+11
     17.68 8.8393e+11
    17.692 8.8536e+11
    17.705 8.8678e+11
    17.717 8.8819e+11
    17.729 8.8961e+11
    17.742 8.9103e+11
    17.754 8.9245e+11
    17.767 8.9388e+11
    17.779 8.9529e+11
    17.791 8.9672e+11
    17.804 8.9814e+11
    17.816 8.9957e+11
    17.829 9.0099e+11
    17.841 9.0241e+11
    17.853 9.0384e+11
    17.866 9.0527e+11
    17.878 9.0669e+11
    17.891 9.0812e+11
    17.903 9.0955e+11
    17.915 9.1098e+11
    17.928 9.1241e+11
     17.94 9.1383e+11
    17.952 9.1527e+11
    17.965  9.167e+11
    17.977 9.1813e+11
     17.99 9.1956e+11
    18.002 9.2099e+11
    18.014 9.2242e+11
    18.027 9.2385e+11
    18.039 9.2529e+11
    18.052 9.2673e+11
    18.064 9.2816e+11
    18.076  9.296e+11
    18.089 9.3103e+11
    18.101 9.3247e+11
    18.114 9.3391e+11
    18.126 9.3534e+11
    18.138 9.3678e+11
    18.151 9.3822e+11
    18.163 9.3966e+11
    18.176  9.411e+11
    18.188 9.4254e+11
      18.2 9.4398e+11
    18.213 9.4543e+11
    18.225 9.4686e+11
    18.238 9.4831e+11
     18.25 9.4975e+11
    18.262  9.512e+11
    18.275 9.5264e+11
    18.287 9.5408e+11
      18.3 9.5553e+11
    18.312 9.5698e+11
    18.324 9.5842e+11
    18.337 9.5987e+11
    18.349 9.6132e+11
    18.362 9.6276e+11
    18.374 9.6421e+11
    18.386 9.6567e+11
    18.399 9.6711e+11
    18.411 9.6856e+11
    18.424 9.7001e+11
    18.436 9.7146e+11
    18.448 9.7292e+11
    18.461 9.7436e+11
    18.473 9.7582e+11
    18.486 9.7727e+11
    18.498 9.7872e+11
     18.51 9.8017e+11
    18.523 9.8163e+11
    18.535 9.8309e+11
    18.548 9.8454e+11
     18.56   9.86e+11
    18.572 9.8745e+11
    18.585 9.8891e+11
    18.597 9.9037e+11
     18.61 9.9182e+11
    18.622 9.9329e+11
    18.634 9.9474e+11
    18.647  9.962e+11
    18.659 9.9766e+11
    18.672 9.9912e+11
    18.684 1.0006e+12
    18.696  1.002e+12
    18.709 1.0035e+12
    18.721  1.005e+12
    18.734 1.0064e+12
    18.746 1.0079e+12
    18.758 1.0094e+12
    18.771 1.0108e+12
    18.783 1.0123e+12
    18.796 1.0138e+12
    18.808 1.0152e+12
     18.82 1.0167e+12
    18.833 1.0182e+12
    18.845 1.0196e+12
    18.858 1.0211e+12
     18.87 1.0226e+12
    18.882  1.024e+12
    18.895 1.0255e+12
    18.907  1.027e+12
     18.92 1.0284e+12
    18.932 1.0299e+12
    18.944 1.0314e+12
    18.957 1.0328e+12
    18.969 1.0343e+12
    18.982 1.0358e+12
    18.994 1.0373e+12
    19.006 1.0387e+12
    19.019 1.0402e+12
    19.031 1.0417e+12
    19.044 1.0432e+12
    19.056 1.0446e+12
    19.068 1.0461e+12
    19.081 1.0476e+12
    19.093 1.0491e+12
    19.106 1.0505e+12
    19.118  1.052e+12
     19.13 1.0535e+12
    19.143  1.055e+12
    19.155 1.0564e+12
    19.168 1.0579e+12
     19.18 1.0594e+12
    19.192 1.0609e+12
    19.205 1.0624e+12
    19.217 1.0638e+12
     19.23 1.0653e+12
    19.242 1.0668e+12
    19.254 1.0683e+12
    19.267 1.0698e+12
    19.279 1.0713e+12
    19.291 1.0727e+12
    19.304 1.0742e+12
    19.316 1.0757e+12
    19.329 1.0772e+12
    19.341 1.0787e+12
    19.353 1.0802e+12
    19.366 1.0816e+12
    19.378 1.0831e+12
    19.391 1.0846e+12
    19.403 1.0861e+12
    19.415 1.0876e+12
    19.428 1.0891e+12
     19.44 1.0906e+12
    19.453 1.0921e+12
    19.465 1.0935e+12
    19.477  1.095e+12
     19.49 1.0965e+12
    19.502  1.098e+12
    19.515 1.0995e+12
    19.527  1.101e+12
    19.539 1.1025e+12
    19.552  1.104e+12
    19.564 1.1055e+12
    19.577  1.107e+12
    19.589 1.1085e+12
    19.601 1.1099e+12
    19.614 1.1114e+12
    19.626 1.1129e+12
    19.639 1.1144e+12
    19.651 1.1159e+12
    19.663 1.1174e+12
    19.676 1.1189e+12
    19.688 1.1204e+12
    19.701 1.1219e+12
    19.713 1.1234e+12
    19.725 1.1249e+12
    19.738 1.1264e+12
     19.75 1.1279e+12
    19.763 1.1294e+12
    19.775 1.1309e+12
    19.787 1.1324e+12
      19.8 1.1339e+12
    19.812 1.1354e+12
    19.825 1.1369e+12
    19.837 1.1384e+12
    19.849 1.1399e+12
    19.862 1.1414e+12
    19.874 1.1429e+12
    19.887 1.1444e+12
    19.899 1.1459e+12
    19.911 1.1474e+12
    19.924 1.1489e+12
    19.936 1.1504e+12
    19.949 1.1519e+12
    19.961 1.1534e+12
    19.973 1.1549e+12
    19.986 1.1564e+12
    19.998 1.1579e+12
    20.011 1.1594e+12
    20.023  1.161e+12
    20.035 1.1625e+12
    20.048  1.164e+12
     20.06 1.1655e+12
    20.073  1.167e+12
    20.085 1.1685e+12
    20.097   1.17e+12
     20.11 1.1715e+12
    20.122  1.173e+12
    20.135 1.1745e+12
    20.147  1.176e+12
    20.159 1.1775e+12
    20.172 1.1791e+12
    20.184 1.1806e+12
    20.197 1.1821e+12
    20.209 1.1836e+12
    20.221 1.1851e+12
    20.234 1.1866e+12
    20.246 1.1881e+12
    20.259 1.1896e+12
    20.271 1.1912e+12
    20.283 1.1927e+12
    20.296 1.1942e+12
    20.308 1.1957e+12
    20.321 1.1972e+12
    20.333 1.1987e+12
    20.345 1.2002e+12
    20.358 1.2017e+12
     20.37 1.2033e+12
    20.383 1.2048e+12
    20.395 1.2063e+12
    20.407 1.2078e+12
     20.42 1.2093e+12
    20.432 1.2109e+12
    20.445 1.2124e+12
    20.457 1.2139e+12
    20.469 1.2154e+12
    20.482 1.2169e+12
    20.494 1.2184e+12
    20.507   1.22e+12
    20.519 1.2215e+12
    20.531  1.223e+12
    20.544 1.2245e+12
    20.556  1.226e+12
    20.569 1.2276e+12
    20.581 1.2291e+12
    20.593 1.2306e+12
    20.606 1.2321e+12
    20.618 1.2336e+12
     20.63 1.2352e+12
    20.643 1.2367e+12
    20.655 1.2382e+12
    20.668 1.2397e+12
     20.68 1.2413e+12
    20.692 1.2428e+12
    20.705 1.2443e+12
    20.717 1.2458e+12
     20.73 1.2474e+12
    20.742 1.2489e+12
    20.754 1.2504e+12
    20.767 1.2519e+12
    20.779 1.2535e+12
    20.792  1.255e+12
    20.804 1.2565e+12
    20.816  1.258e+12
    20.829 1.2596e+12
    20.841 1.2611e+12
    20.854 1.2626e+12
    20.866 1.2642e+12
    20.878 1.2657e+12
    20.891 1.2672e+12
    20.903 1.2687e+12
    20.916 1.2703e+12
    20.928 1.2718e+12
     20.94 1.2733e+12
    20.953 1.2749e+12
    20.965 1.2764e+12
    20.978 1.2779e+12
     20.99 1.2795e+12
    21.002  1.281e+12
    21.015 1.2825e+12
    21.027  1.284e+12
     21.04 1.2856e+12
    21.052 1.2871e+12
    21.064 1.2886e+12
    21.077 1.2902e+12
    21.089 1.2917e+12
    21.102 1.2932e+12
    21.114 1.2948e+12
    21.126 1.2963e+12
    21.139 1.2978e+12
    21.151 1.2994e+12
    21.164 1.3009e+12
    21.176 1.3024e+12
    21.188  1.304e+12
    21.201 1.3055e+12
    21.213 1.3071e+12
    21.226 1.3086e+12
    21.238 1.3101e+12
     21.25 1.3117e+12
    21.263 1.3132e+12
    21.275 1.3147e+12
    21.288 1.3163e+12
      21.3 1.3178e+12
    21.312 1.3193e+12
    21.325 1.3209e+12
    21.337 1.3224e+12
     21.35  1.324e+12
    21.362 1.3255e+12
    21.374  1.327e+12
    21.387 1.3286e+12
    21.399 1.3301e+12
    21.412 1.3317e+12
    21.424 1.3332e+12
    21.436 1.3347e+12
    21.449 1.3363e+12
    21.461 1.3378e+12
    21.474 1.3394e+12
    21.486 1.3409e+12
    21.498 1.3424e+12
    21.511  1.344e+12
    21.523 1.3455e+12
    21.536 1.3471e+12
    21.548 1.3486e+12
     21.56 1.3502e+12
    21.573 1.3517e+12
    21.585 1.3532e+12
    21.598 1.3548e+12
     21.61 1.3563e+12
    21.622 1.3579e+12
    21.635 1.3594e+12
    21.647  1.361e+12
     21.66 1.3625e+12
    21.672  1.364e+12
    21.684 1.3656e+12
    21.697 1.3671e+12
    21.709 1.3687e+12
    21.722 1.3702e+12
    21.734 1.3718e+12
    21.746 1.3733e+12
    21.759 1.3749e+12
    21.771 1.3764e+12
    21.784  1.378e+12
    21.796 1.3795e+12
    21.808 1.3811e+12
    21.821 1.3826e+12
    21.833 1.3841e+12
    21.846 1.3857e+12
    21.858 1.3872e+12
     21.87 1.3888e+12
    21.883 1.3903e+12
    21.895 1.3919e+12
    21.908 1.3934e+12
     21.92  1.395e+12
    21.932 1.3965e+12
    21.945 1.3981e+12
    21.957 1.3996e+12
    21.969 1.4012e+12
    21.982 1.4027e+12
    21.994 1.4043e+12
    22.007 1.4058e+12
    22.019 1.4074e+12
    22.031 1.4089e+12
    22.044 1.4105e+12
    22.056  1.412e+12
    22.069 1.4136e+12
    22.081 1.4151e+12
    22.093 1.4167e+12
    22.106 1.4182e+12
    22.118 1.4198e+12
    22.131 1.4214e+12
    22.143 1.4229e+12
    22.155 1.4245e+12
    22.168  1.426e+12
     22.18 1.4276e+12
    22.193 1.4291e+12
    22.205 1.4307e+12
    22.217 1.4322e+12
     22.23 1.4338e+12
    22.242 1.4353e+12
    22.255 1.4369e+12
    22.267 1.4384e+12
    22.279   1.44e+12
    22.292 1.4415e+12
    22.304 1.4431e+12
    22.317 1.4447e+12
    22.329 1.4462e+12
    22.341 1.4478e+12
    22.354 1.4493e+12
    22.366 1.4509e+12
    22.379 1.4524e+12
    22.391  1.454e+12
    22.403 1.4555e+12
    22.416 1.4571e+12
    22.428 1.4587e+12
    22.441 1.4602e+12
    22.453 1.4618e+12
    22.465 1.4633e+12
    22.478 1.4649e+12
     22.49 1.4664e+12
    22.503  1.468e+12
    22.515 1.4696e+12
    22.527 1.4711e+12
     22.54 1.4727e+12
    22.552 1.4742e+12
    22.565 1.4758e+12
    22.577 1.4774e+12
    22.589 1.4789e+12
    22.602 1.4805e+12
    22.614  1.482e+12
    22.627 1.4836e+12
    22.639 1.4852e+12
    22.651 1.4867e+12
    22.664 1.4883e+12
    22.676 1.4898e+12
    22.689 1.4914e+12
    22.701  1.493e+12
    22.713 1.4945e+12
    22.726 1.4961e+12
    22.738 1.4976e+12
    22.751 1.4992e+12
    22.763 1.5008e+12
    22.775 1.5023e+12
    22.788 1.5039e+12
      22.8 1.5054e+12
    22.813  1.507e+12
    22.825 1.5086e+12
    22.837 1.5101e+12
     22.85 1.5117e+12
    22.862 1.5133e+12
    22.875 1.5148e+12
    22.887 1.5164e+12
    22.899 1.5179e+12
    22.912 1.5195e+12
    22.924 1.5211e+12
    22.937 1.5226e+12
    22.949 1.5242e+12
    22.961 1.5258e+12
    22.974 1.5273e+12
    22.986 1.5289e+12
    22.999 1.5304e+12
    23.011  1.532e+12
    23.023 1.5336e+12
    23.036 1.5351e+12
    23.048 1.5367e+12
    23.061 1.5383e+12
    23.073 1.5398e+12
    23.085 1.5414e+12
    23.098  1.543e+12
     23.11 1.5445e+12
    23.123 1.5461e+12
    23.135 1.5477e+12
    23.147 1.5492e+12
     23.16 1.5508e+12
    23.172 1.5523e+12
    23.185 1.5539e+12
    23.197 1.5555e+12
    23.209  1.557e+12
    23.222 1.5586e+12
    23.234 1.5602e+12
    23.247 1.5618e+12
    23.259 1.5633e+12
    23.271 1.5649e+12
    23.284 1.5664e+12
    23.296  1.568e+12
    23.308 1.5696e+12
    23.321 1.5712e+12
    23.333 1.5727e+12
    23.346 1.5743e+12
    23.358 1.5758e+12
     23.37 1.5774e+12
    23.383  1.579e+12
    23.395 1.5806e+12
    23.408 1.5821e+12
     23.42 1.5837e+12
    23.432 1.5852e+12
    23.445 1.5868e+12
    23.457 1.5884e+12
     23.47   1.59e+12
    23.482 1.5915e+12
    23.494 1.5931e+12
    23.507 1.5947e+12
    23.519 1.5962e+12
    23.532 1.5978e+12
    23.544 1.5994e+12
    23.556 1.6009e+12
    23.569 1.6025e+12
    23.581 1.6041e+12
    23.594 1.6057e+12
    23.606 1.6072e+12
    23.618 1.6088e+12
    23.631 1.6104e+12
    23.643 1.6119e+12
    23.656 1.6135e+12
    23.668 1.6151e+12
     23.68 1.6166e+12
    23.693 1.6182e+12
    23.705 1.6198e+12
    23.718 1.6214e+12
     23.73 1.6229e+12
    23.742 1.6245e+12
    23.755 1.6261e+12
    23.767 1.6276e+12
     23.78 1.6292e+12
    23.792 1.6308e+12
    23.804 1.6323e+12
    23.817 1.6339e+12
    23.829 1.6355e+12
    23.842 1.6371e+12
    23.854 1.6386e+12
    23.866 1.6402e+12
    23.879 1.6418e+12
    23.891 1.6433e+12
    23.904 1.6449e+12
    23.916 1.6465e+12
    23.928 1.6481e+12
    23.941 1.6496e+12
    23.953 1.6512e+12
    23.966 1.6528e+12
    23.978 1.6544e+12
     23.99 1.6559e+12
    24.003 1.6575e+12
    24.015 1.6591e+12
    24.028 1.6606e+12
     24.04 1.6622e+12
    24.052 1.6638e+12
    24.065 1.6654e+12
    24.077 1.6669e+12
     24.09 1.6685e+12
    24.102 1.6701e+12
    24.114 1.6717e+12
    24.127 1.6732e+12
    24.139 1.6748e+12
    24.152 1.6764e+12
    24.164 1.6779e+12
    24.176 1.6795e+12
    24.189 1.6811e+12
    24.201 1.6827e+12
    24.214 1.6842e+12
    24.226 1.6858e+12
    24.238 1.6874e+12
    24.251  1.689e+12
    24.263 1.6905e+12
    24.276 1.6921e+12
    24.288 1.6937e+12
      24.3 1.6953e+12
    24.313 1.6968e+12
    24.325 1.6984e+12
    24.338    1.7e+12
     24.35 1.7015e+12
    24.362 1.7031e+12
    24.375 1.7047e+12
    24.387 1.7063e+12
      24.4 1.7079e+12
    24.412 1.7094e+12
    24.424  1.711e+12
    24.437 1.7126e+12
    24.449 1.7141e+12
    24.462 1.7157e+12
    24.474 1.7173e+12
    24.486 1.7189e+12
    24.499 1.7204e+12
    24.511  1.722e+12
    24.524 1.7236e+12
    24.536 1.7252e+12
    24.548 1.7267e+12
    24.561 1.7283e+12
    24.573 1.7299e+12
    24.585 1.7315e+12
    24.598  1.733e+12
     24.61 1.7346e+12
    24.623 1.7362e+12
    24.635 1.7378e+12
    24.647 1.7394e+12
     24.66 1.7409e+12
    24.672 1.7425e+12
    24.685 1.7441e+12
    24.697 1.7457e+12
    24.709 1.7472e+12
    24.722 1.7488e+12
    24.734 1.7504e+12
    24.747  1.752e+12
    24.759 1.7535e+12
    24.771 1.7551e+12
    24.784 1.7567e+12
    24.796 1.7583e+12
    24.809 1.7598e+12
    24.821 1.7614e+12
    24.833  1.763e+12
    24.846 1.7646e+12
    24.858 1.7661e+12
    24.871 1.7677e+12
    24.883 1.7693e+12
    24.895 1.7709e+12
    24.908 1.7724e+12
     24.92  1.774e+12
    24.933 1.7756e+12
    24.945 1.7772e+12
    24.957 1.7788e+12
     24.97 1.7803e+12
    24.982 1.7819e+12
    24.995 1.7835e+12
    25.007 1.7851e+12
    25.019 1.7866e+12
    25.032 1.7882e+12
    25.044 1.7898e+12
    25.057 1.7914e+12
    25.069 1.7929e+12
    25.081 1.7945e+12
    25.094 1.7961e+12
    25.106 1.7977e+12
    25.119 1.7993e+12
    25.131 1.8008e+12
    25.143 1.8024e+12
    25.156  1.804e+12
    25.168 1.8056e+12
    25.181 1.8071e+12
    25.193 1.8087e+12
    25.205 1.8103e+12
    25.218 1.8119e+12
     25.23 1.8134e+12
    25.243  1.815e+12
    25.255 1.8166e+12
    25.267 1.8182e+12
     25.28 1.8197e+12
    25.292 1.8213e+12
    25.305 1.8229e+12
    25.317 1.8245e+12
    25.329  1.826e+12
    25.342 1.8276e+12
    25.354 1.8292e+12
    25.367 1.8308e+12
    25.379 1.8324e+12
    25.391 1.8339e+12
    25.404 1.8355e+12
    25.416 1.8371e+12
    25.429 1.8387e+12
    25.441 1.8402e+12
    25.453 1.8418e+12
    25.466 1.8434e+12
    25.478  1.845e+12
    25.491 1.8466e+12
    25.503 1.8481e+12
    25.515 1.8497e+12
    25.528 1.8513e+12
     25.54 1.8529e+12
    25.553 1.8544e+12
    25.565  1.856e+12
    25.577 1.8576e+12
     25.59 1.8592e+12
    25.602 1.8608e+12
    25.615 1.8623e+12
    25.627 1.8639e+12
    25.639 1.8655e+12
    25.652 1.8671e+12
    25.664 1.8686e+12
    25.677 1.8702e+12
    25.689 1.8718e+12
    25.701 1.8734e+12
    25.714 1.8749e+12
    25.726 1.8765e+12
    25.739 1.8781e+12
    25.751 1.8797e+12
    25.763 1.8813e+12
    25.776 1.8828e+12
    25.788 1.8844e+12
    25.801  1.886e+12
    25.813 1.8876e+12
    25.825 1.8891e+12
    25.838 1.8907e+12
     25.85 1.8923e+12
    25.863 1.8939e+12
    25.875 1.8954e+12
    25.887  1.897e+12
      25.9 1.8986e+12
    25.912 1.9002e+12
    25.924 1.9018e+12
    25.937 1.9033e+12
    25.949 1.9049e+12
    25.962 1.9065e+12
    25.974 1.9081e+12
    25.986 1.9096e+12
    25.999 1.9112e+12
    26.011 1.9128e+12
    26.024 1.9144e+12
    26.036 1.9159e+12
    26.048 1.9175e+12
    26.061 1.9191e+12
    26.073 1.9207e+12
    26.086 1.9223e+12
    26.098 1.9238e+12
     26.11 1.9254e+12
    26.123  1.927e+12
    26.135 1.9286e+12
    26.148 1.9301e+12
     26.16 1.9317e+12
    26.172 1.9333e+12
    26.185 1.9349e+12
    26.197 1.9364e+12
     26.21  1.938e+12
    26.222 1.9396e+12
    26.234 1.9412e+12
    26.247 1.9427e+12
    26.259 1.9443e+12
    26.272 1.9459e+12
    26.284 1.9475e+12
    26.296  1.949e+12
    26.309 1.9506e+12
    26.321 1.9522e+12
    26.334 1.9538e+12
    26.346 1.9554e+12
    26.358 1.9569e+12
    26.371 1.9585e+12
    26.383 1.9601e+12
    26.396 1.9617e+12
    26.408 1.9632e+12
     26.42 1.9648e+12
    26.433 1.9664e+12
    26.445  1.968e+12
    26.458 1.9695e+12
     26.47 1.9711e+12
    26.482 1.9727e+12
    26.495 1.9743e+12
    26.507 1.9758e+12
     26.52 1.9774e+12
    26.532  1.979e+12
    26.544 1.9806e+12
    26.557 1.9821e+12
    26.569 1.9837e+12
    26.582 1.9853e+12
    26.594 1.9869e+12
    26.606 1.9884e+12
    26.619   1.99e+12
    26.631 1.9916e+12
    26.644 1.9932e+12
    26.656 1.9947e+12
    26.668 1.9963e+12
    26.681 1.9979e+12
    26.693 1.9995e+12
    26.706 2.0011e+12
    26.718 2.0026e+12
     26.73 2.0042e+12
    26.743 2.0058e+12
    26.755 2.0073e+12
    26.768 2.0089e+12
     26.78 2.0105e+12
    26.792 2.0121e+12
    26.805 2.0136e+12
    26.817 2.0152e+12
     26.83 2.0168e+12
    26.842 2.0184e+12
    26.854 2.0199e+12
    26.867 2.0215e+12
    26.879 2.0231e+12
    26.892 2.0247e+12
    26.904 2.0262e+12
    26.916 2.0278e+12
    26.929 2.0294e+12
    26.941  2.031e+12
    26.954 2.0325e+12
    26.966 2.0341e+12
    26.978 2.0357e+12
    26.991 2.0373e+12
    27.003 2.0388e+12
    27.016 2.0404e+12
    27.028  2.042e+12
     27.04 2.0436e+12
    27.053 2.0451e+12
    27.065 2.0467e+12
    27.078 2.0483e+12
     27.09 2.0498e+12
    27.102 2.0514e+12
    27.115  2.053e+12
    27.127 2.0546e+12
     27.14 2.0561e+12
    27.152 2.0577e+12
    27.164 2.0593e+12
    27.177 2.0609e+12
    27.189 2.0624e+12
    27.202  2.064e+12
    27.214 2.0656e+12
    27.226 2.0672e+12
    27.239 2.0687e+12
    27.251 2.0703e+12
    27.263 2.0719e+12
    27.276 2.0734e+12
    27.288  2.075e+12
    27.301 2.0766e+12
    27.313 2.0782e+12
    27.325 2.0797e+12
    27.338 2.0813e+12
     27.35 2.0829e+12
    27.363 2.0844e+12
    27.375  2.086e+12
    27.387 2.0876e+12
      27.4 2.0892e+12
    27.412 2.0907e+12
    27.425 2.0923e+12
    27.437 2.0939e+12
    27.449 2.0954e+12
    27.462  2.097e+12
    27.474 2.0986e+12
    27.487 2.1002e+12
    27.499 2.1017e+12
    27.511 2.1033e+12
    27.524 2.1049e+12
    27.536 2.1064e+12
    27.549  2.108e+12
    27.561 2.1096e+12
    27.573 2.1112e+12
    27.586 2.1127e+12
    27.598 2.1143e+12
    27.611 2.1159e+12
    27.623 2.1174e+12
    27.635  2.119e+12
    27.648 2.1206e+12
     27.66 2.1222e+12
    27.673 2.1237e+12
    27.685 2.1253e+12
    27.697 2.1269e+12
     27.71 2.1284e+12
    27.722   2.13e+12
    27.735 2.1316e+12
    27.747 2.1331e+12
    27.759 2.1347e+12
    27.772 2.1363e+12
    27.784 2.1378e+12
    27.797 2.1394e+12
    27.809  2.141e+12
    27.821 2.1426e+12
    27.834 2.1441e+12
    27.846 2.1457e+12
    27.859 2.1473e+12
    27.871 2.1488e+12
    27.883 2.1504e+12
    27.896  2.152e+12
    27.908 2.1535e+12
    27.921 2.1551e+12
    27.933 2.1567e+12
    27.945 2.1582e+12
    27.958 2.1598e+12
     27.97 2.1614e+12
    27.983 2.1629e+12
    27.995 2.1645e+12
    28.007 2.1661e+12
     28.02 2.1676e+12
    28.032 2.1692e+12
    28.045 2.1708e+12
    28.057 2.1724e+12
    28.069 2.1739e+12
    28.082 2.1755e+12
    28.094 2.1771e+12
    28.107 2.1786e+12
    28.119 2.1802e+12
    28.131 2.1818e+12
    28.144 2.1833e+12
    28.156 2.1849e+12
    28.169 2.1865e+12
    28.181  2.188e+12
    28.193 2.1896e+12
    28.206 2.1912e+12
    28.218 2.1927e+12
    28.231 2.1943e+12
    28.243 2.1958e+12
    28.255 2.1974e+12
    28.268  2.199e+12
     28.28 2.2005e+12
    28.293 2.2021e+12
    28.305 2.2037e+12
    28.317 2.2052e+12
     28.33 2.2068e+12
    28.342 2.2084e+12
    28.355 2.2099e+12
    28.367 2.2115e+12
    28.379 2.2131e+12
    28.392 2.2146e+12
    28.404 2.2162e+12
    28.417 2.2178e+12
    28.429 2.2193e+12
    28.441 2.2209e+12
    28.454 2.2225e+12
    28.466  2.224e+12
    28.479 2.2256e+12
    28.491 2.2271e+12
    28.503 2.2287e+12
    28.516 2.2303e+12
    28.528 2.2319e+12
    28.541 2.2334e+12
    28.553  2.235e+12
    28.565 2.2365e+12
    28.578 2.2381e+12
     28.59 2.2397e+12
    28.602 2.2412e+12
    28.615 2.2428e+12
    28.627 2.2443e+12
     28.64 2.2459e+12
    28.652 2.2475e+12
    28.664  2.249e+12
    28.677 2.2506e+12
    28.689 2.2522e+12
    28.702 2.2537e+12
    28.714 2.2553e+12
    28.726 2.2568e+12
    28.739 2.2584e+12
    28.751   2.26e+12
    28.764 2.2615e+12
    28.776 2.2631e+12
    28.788 2.2646e+12
    28.801 2.2662e+12
    28.813 2.2678e+12
    28.826 2.2693e+12
    28.838 2.2709e+12
     28.85 2.2725e+12
    28.863  2.274e+12
    28.875 2.2756e+12
    28.888 2.2771e+12
      28.9 2.2787e+12
    28.912 2.2803e+12
    28.925 2.2818e+12
    28.937 2.2834e+12
     28.95 2.2849e+12
    28.962 2.2865e+12
    28.974 2.2881e+12
    28.987 2.2896e+12
    28.999 2.2912e+12
    29.012 2.2927e+12
    29.024 2.2943e+12
    29.036 2.2959e+12
    29.049 2.2974e+12
    29.061  2.299e+12
    29.074 2.3005e+12
    29.086 2.3021e+12
    29.098 2.3036e+12
    29.111 2.3052e+12
    29.123 2.3068e+12
    29.136 2.3083e+12
    29.148 2.3099e+12
     29.16 2.3114e+12
    29.173  2.313e+12
    29.185 2.3145e+12
    29.198 2.3161e+12
     29.21 2.3177e+12
    29.222 2.3192e+12
    29.235 2.3208e+12
    29.247 2.3223e+12
     29.26 2.3239e+12
    29.272 2.3254e+12
    29.284  2.327e+12
    29.297 2.3286e+12
    29.309 2.3301e+12
    29.322 2.3317e+12
    29.334 2.3332e+12
    29.346 2.3348e+12
    29.359 2.3363e+12
    29.371 2.3379e+12
    29.384 2.3395e+12
    29.396  2.341e+12
    29.408 2.3426e+12
    29.421 2.3441e+12
    29.433 2.3457e+12
    29.446 2.3472e+12
    29.458 2.3488e+12
     29.47 2.3503e+12
    29.483 2.3519e+12
    29.495 2.3534e+12
    29.508  2.355e+12
     29.52 2.3566e+12
    29.532 2.3581e+12
    29.545 2.3597e+12
    29.557 2.3612e+12
     29.57 2.3628e+12
    29.582 2.3643e+12
    29.594 2.3659e+12
    29.607 2.3674e+12
    29.619  2.369e+12
    29.632 2.3705e+12
    29.644 2.3721e+12
    29.656 2.3736e+12
    29.669 2.3752e+12
    29.681 2.3768e+12
    29.694 2.3783e+12
    29.706 2.3799e+12
    29.718 2.3814e+12
    29.731 2.3829e+12
    29.743 2.3845e+12
    29.756 2.3861e+12
    29.768 2.3876e+12
     29.78 2.3892e+12
    29.793 2.3907e+12
    29.805 2.3923e+12
    29.818 2.3938e+12
     29.83 2.3954e+12
    29.842 2.3969e+12
    29.855 2.3985e+12
    29.867    2.4e+12
     29.88 2.4016e+12
    29.892 2.4031e+12
    29.904 2.4047e+12
    29.917 2.4062e+12
    29.929 2.4078e+12
    29.941 2.4093e+12
    29.954 2.4109e+12
    29.966 2.4124e+12
    29.979  2.414e+12
    29.991 2.4155e+12
    30.003 2.4171e+12
