RRKM rate, sf=0.970, S*=-13.40, E0=0.23 and Delta=-0.89
   En (eV)    k (s-1)
         0          0
  0.012398          0
  0.024796          0
  0.037194          0
  0.049593          0
  0.061991          0
  0.074389          0
  0.086787          0
  0.099185          0
   0.11158          0
   0.12398          0
   0.13638          0
   0.14878          0
   0.16118          0
   0.17357          0
   0.18597          0
   0.19837          0
   0.21077          0
   0.22317          0
   0.23556 4.5707e+07
   0.24796  9.038e+07
   0.26036 1.8017e+08
   0.27276 2.6791e+08
   0.28516 3.8809e+08
   0.29756 5.2021e+08
   0.30995 6.8057e+08
   0.32235 8.6821e+08
   0.33475 1.0756e+09
   0.34715 1.3209e+09
   0.35955 1.5837e+09
   0.37194 1.8861e+09
   0.38434 2.2081e+09
   0.39674 2.5676e+09
   0.40914 2.9519e+09
   0.42154 3.3712e+09
   0.43393 3.8208e+09
   0.44633 4.3024e+09
   0.45873  4.818e+09
   0.47113 5.3643e+09
   0.48353 5.9463e+09
   0.49593 6.5593e+09
   0.50832 7.2082e+09
   0.52072 7.8892e+09
   0.53312 8.6058e+09
   0.54552 9.3558e+09
   0.55792 1.0141e+10
   0.57031  1.096e+10
   0.58271 1.1815e+10
   0.59511 1.2704e+10
   0.60751 1.3628e+10
   0.61991 1.4587e+10
    0.6323  1.558e+10
    0.6447 1.6609e+10
    0.6571 1.7673e+10
    0.6695 1.8772e+10
    0.6819 1.9907e+10
    0.6943 2.1076e+10
   0.70669  2.228e+10
   0.71909 2.3519e+10
   0.73149 2.4792e+10
   0.74389 2.6101e+10
   0.75629 2.7445e+10
   0.76868 2.8823e+10
   0.78108 3.0235e+10
   0.79348 3.1683e+10
   0.80588 3.3164e+10
   0.81828  3.468e+10
   0.83067  3.623e+10
   0.84307 3.7814e+10
   0.85547 3.9432e+10
   0.86787 4.1084e+10
   0.88027  4.277e+10
   0.89267 4.4489e+10
   0.90506 4.6241e+10
   0.91746 4.8027e+10
   0.92986 4.9846e+10
   0.94226 5.1698e+10
   0.95466 5.3583e+10
   0.96705   5.55e+10
   0.97945  5.745e+10
   0.99185 5.9432e+10
    1.0042 6.1447e+10
    1.0166 6.3493e+10
     1.029 6.5571e+10
    1.0414 6.7681e+10
    1.0538 6.9822e+10
    1.0662 7.1995e+10
    1.0786 7.4199e+10
     1.091 7.6434e+10
    1.1034 7.8699e+10
    1.1158 8.0996e+10
    1.1282 8.3322e+10
    1.1406 8.5679e+10
     1.153 8.8065e+10
    1.1654 9.0482e+10
    1.1778 9.2928e+10
    1.1902 9.5404e+10
    1.2026  9.791e+10
     1.215 1.0044e+11
    1.2274 1.0301e+11
    1.2398  1.056e+11
    1.2522 1.0822e+11
    1.2646 1.1087e+11
     1.277 1.1355e+11
    1.2894 1.1625e+11
    1.3018 1.1898e+11
    1.3142 1.2174e+11
    1.3266 1.2453e+11
     1.339 1.2735e+11
    1.3514 1.3019e+11
    1.3638 1.3306e+11
    1.3762 1.3595e+11
    1.3886 1.3887e+11
     1.401 1.4182e+11
    1.4134 1.4479e+11
    1.4258 1.4779e+11
    1.4382 1.5082e+11
    1.4506 1.5387e+11
     1.463 1.5695e+11
    1.4754 1.6005e+11
    1.4878 1.6318e+11
    1.5002 1.6633e+11
    1.5126  1.695e+11
     1.525  1.727e+11
    1.5374 1.7593e+11
    1.5498 1.7917e+11
    1.5622 1.8245e+11
    1.5746 1.8574e+11
     1.587 1.8906e+11
    1.5994  1.924e+11
    1.6118 1.9577e+11
    1.6242 1.9916e+11
    1.6366 2.0257e+11
     1.649   2.06e+11
    1.6613 2.0946e+11
    1.6737 2.1293e+11
    1.6861 2.1644e+11
    1.6985 2.1996e+11
    1.7109  2.235e+11
    1.7233 2.2707e+11
    1.7357 2.3065e+11
    1.7481 2.3426e+11
    1.7605 2.3789e+11
    1.7729 2.4154e+11
    1.7853 2.4521e+11
    1.7977 2.4889e+11
    1.8101 2.5261e+11
    1.8225 2.5634e+11
    1.8349 2.6009e+11
    1.8473 2.6386e+11
    1.8597 2.6765e+11
    1.8721 2.7145e+11
    1.8845 2.7528e+11
    1.8969 2.7913e+11
    1.9093   2.83e+11
    1.9217 2.8688e+11
    1.9341 2.9078e+11
    1.9465 2.9471e+11
    1.9589 2.9865e+11
    1.9713  3.026e+11
    1.9837 3.0658e+11
    1.9961 3.1057e+11
    2.0085 3.1459e+11
    2.0209 3.1862e+11
    2.0333 3.2266e+11
    2.0457 3.2673e+11
    2.0581 3.3081e+11
    2.0705  3.349e+11
    2.0829 3.3902e+11
    2.0953 3.4315e+11
    2.1077  3.473e+11
    2.1201 3.5146e+11
    2.1325 3.5564e+11
    2.1449 3.5984e+11
    2.1573 3.6405e+11
    2.1697 3.6828e+11
    2.1821 3.7252e+11
    2.1945 3.7678e+11
    2.2069 3.8105e+11
    2.2193 3.8534e+11
    2.2317 3.8964e+11
    2.2441 3.9396e+11
    2.2565  3.983e+11
    2.2689 4.0264e+11
    2.2813 4.0701e+11
    2.2937 4.1138e+11
    2.3061 4.1577e+11
    2.3185 4.2018e+11
    2.3308  4.246e+11
    2.3432 4.2903e+11
    2.3556 4.3348e+11
     2.368 4.3794e+11
    2.3804 4.4241e+11
    2.3928  4.469e+11
    2.4052  4.514e+11
    2.4176 4.5591e+11
      2.43 4.6043e+11
    2.4424 4.6497e+11
    2.4548 4.6952e+11
    2.4672 4.7409e+11
    2.4796 4.7866e+11
     2.492 4.8325e+11
    2.5044 4.8785e+11
    2.5168 4.9246e+11
    2.5292 4.9709e+11
    2.5416 5.0173e+11
     2.554 5.0637e+11
    2.5664 5.1103e+11
    2.5788  5.157e+11
    2.5912 5.2038e+11
    2.6036 5.2508e+11
     2.616 5.2978e+11
    2.6284  5.345e+11
    2.6408 5.3922e+11
    2.6532 5.4396e+11
    2.6656 5.4871e+11
     2.678 5.5347e+11
    2.6904 5.5824e+11
    2.7028 5.6302e+11
    2.7152  5.678e+11
    2.7276  5.726e+11
      2.74 5.7741e+11
    2.7524 5.8223e+11
    2.7648 5.8706e+11
    2.7772  5.919e+11
    2.7896 5.9675e+11
     2.802 6.0161e+11
    2.8144 6.0648e+11
    2.8268 6.1135e+11
    2.8392 6.1624e+11
    2.8516 6.2114e+11
     2.864 6.2604e+11
    2.8764 6.3095e+11
    2.8888 6.3587e+11
    2.9012 6.4081e+11
    2.9136 6.4575e+11
     2.926 6.5069e+11
    2.9384 6.5565e+11
    2.9508 6.6062e+11
    2.9632 6.6559e+11
    2.9756 6.7057e+11
     2.988 6.7556e+11
    3.0003 6.8056e+11
    3.0127 6.8556e+11
    3.0251 6.9058e+11
    3.0375 6.9559e+11
    3.0499 7.0062e+11
    3.0623 7.0566e+11
    3.0747  7.107e+11
    3.0871 7.1575e+11
    3.0995 7.2081e+11
    3.1119 7.2588e+11
    3.1243 7.3095e+11
    3.1367 7.3603e+11
    3.1491 7.4111e+11
    3.1615 7.4621e+11
    3.1739 7.5131e+11
    3.1863 7.5641e+11
    3.1987 7.6153e+11
    3.2111 7.6665e+11
    3.2235 7.7177e+11
    3.2359  7.769e+11
    3.2483 7.8205e+11
    3.2607 7.8719e+11
    3.2731 7.9234e+11
    3.2855  7.975e+11
    3.2979 8.0267e+11
    3.3103 8.0783e+11
    3.3227 8.1301e+11
    3.3351 8.1819e+11
    3.3475 8.2338e+11
    3.3599 8.2857e+11
    3.3723 8.3377e+11
    3.3847 8.3897e+11
    3.3971 8.4418e+11
    3.4095 8.4939e+11
    3.4219 8.5461e+11
    3.4343 8.5984e+11
    3.4467 8.6507e+11
    3.4591 8.7031e+11
    3.4715 8.7554e+11
    3.4839 8.8079e+11
    3.4963 8.8604e+11
    3.5087  8.913e+11
    3.5211 8.9656e+11
    3.5335 9.0182e+11
    3.5459 9.0709e+11
    3.5583 9.1236e+11
    3.5707 9.1764e+11
    3.5831 9.2293e+11
    3.5955 9.2821e+11
    3.6079  9.335e+11
    3.6203 9.3879e+11
    3.6327 9.4409e+11
    3.6451  9.494e+11
    3.6574  9.547e+11
    3.6698 9.6002e+11
    3.6822 9.6533e+11
    3.6946 9.7065e+11
     3.707 9.7597e+11
    3.7194  9.813e+11
    3.7318 9.8663e+11
    3.7442 9.9197e+11
    3.7566  9.973e+11
     3.769 1.0026e+12
    3.7814  1.008e+12
    3.7938 1.0133e+12
    3.8062 1.0187e+12
    3.8186  1.024e+12
     3.831 1.0294e+12
    3.8434 1.0348e+12
    3.8558 1.0401e+12
    3.8682 1.0455e+12
    3.8806 1.0509e+12
     3.893 1.0562e+12
    3.9054 1.0616e+12
    3.9178  1.067e+12
    3.9302 1.0724e+12
    3.9426 1.0778e+12
     3.955 1.0831e+12
    3.9674 1.0885e+12
    3.9798 1.0939e+12
    3.9922 1.0993e+12
    4.0046 1.1047e+12
     4.017 1.1101e+12
    4.0294 1.1155e+12
    4.0418 1.1209e+12
    4.0542 1.1263e+12
    4.0666 1.1317e+12
     4.079 1.1372e+12
    4.0914 1.1426e+12
    4.1038  1.148e+12
    4.1162 1.1534e+12
    4.1286 1.1588e+12
     4.141 1.1643e+12
    4.1534 1.1697e+12
    4.1658 1.1751e+12
    4.1782 1.1805e+12
    4.1906  1.186e+12
     4.203 1.1914e+12
    4.2154 1.1968e+12
    4.2278 1.2023e+12
    4.2402 1.2077e+12
    4.2526 1.2131e+12
     4.265 1.2186e+12
    4.2774  1.224e+12
    4.2898 1.2295e+12
    4.3022 1.2349e+12
    4.3146 1.2404e+12
    4.3269 1.2458e+12
    4.3393 1.2512e+12
    4.3517 1.2567e+12
    4.3641 1.2621e+12
    4.3765 1.2676e+12
    4.3889 1.2731e+12
    4.4013 1.2785e+12
    4.4137  1.284e+12
    4.4261 1.2894e+12
    4.4385 1.2949e+12
    4.4509 1.3003e+12
    4.4633 1.3058e+12
    4.4757 1.3113e+12
    4.4881 1.3167e+12
    4.5005 1.3222e+12
    4.5129 1.3276e+12
    4.5253 1.3331e+12
    4.5377 1.3386e+12
    4.5501  1.344e+12
    4.5625 1.3495e+12
    4.5749  1.355e+12
    4.5873 1.3604e+12
    4.5997 1.3659e+12
    4.6121 1.3714e+12
    4.6245 1.3768e+12
    4.6369 1.3823e+12
    4.6493 1.3878e+12
    4.6617 1.3932e+12
    4.6741 1.3987e+12
    4.6865 1.4042e+12
    4.6989 1.4097e+12
    4.7113 1.4151e+12
    4.7237 1.4206e+12
    4.7361 1.4261e+12
    4.7485 1.4315e+12
    4.7609  1.437e+12
    4.7733 1.4425e+12
    4.7857  1.448e+12
    4.7981 1.4534e+12
    4.8105 1.4589e+12
    4.8229 1.4644e+12
    4.8353 1.4698e+12
    4.8477 1.4753e+12
    4.8601 1.4808e+12
    4.8725 1.4863e+12
    4.8849 1.4917e+12
    4.8973 1.4972e+12
    4.9097 1.5027e+12
    4.9221 1.5081e+12
    4.9345 1.5136e+12
    4.9469 1.5191e+12
    4.9593 1.5245e+12
    4.9717   1.53e+12
     4.984 1.5355e+12
    4.9964  1.541e+12
    5.0088 1.5464e+12
    5.0212 1.5519e+12
    5.0336 1.5574e+12
     5.046 1.5628e+12
    5.0584 1.5683e+12
    5.0708 1.5737e+12
    5.0832 1.5792e+12
    5.0956 1.5847e+12
     5.108 1.5901e+12
    5.1204 1.5956e+12
    5.1328 1.6011e+12
    5.1452 1.6065e+12
    5.1576  1.612e+12
      5.17 1.6174e+12
    5.1824 1.6229e+12
    5.1948 1.6284e+12
    5.2072 1.6338e+12
    5.2196 1.6393e+12
     5.232 1.6447e+12
    5.2444 1.6502e+12
    5.2568 1.6556e+12
    5.2692 1.6611e+12
    5.2816 1.6665e+12
     5.294  1.672e+12
    5.3064 1.6774e+12
    5.3188 1.6829e+12
    5.3312 1.6883e+12
    5.3436 1.6938e+12
     5.356 1.6992e+12
    5.3684 1.7047e+12
    5.3808 1.7101e+12
    5.3932 1.7155e+12
    5.4056  1.721e+12
     5.418 1.7264e+12
    5.4304 1.7319e+12
    5.4428 1.7373e+12
    5.4552 1.7427e+12
    5.4676 1.7482e+12
      5.48 1.7536e+12
    5.4924  1.759e+12
    5.5048 1.7645e+12
    5.5172 1.7699e+12
    5.5296 1.7753e+12
     5.542 1.7807e+12
    5.5544 1.7862e+12
    5.5668 1.7916e+12
    5.5792  1.797e+12
    5.5916 1.8024e+12
     5.604 1.8078e+12
    5.6164 1.8133e+12
    5.6288 1.8187e+12
    5.6412 1.8241e+12
    5.6535 1.8295e+12
    5.6659 1.8349e+12
    5.6783 1.8403e+12
    5.6907 1.8457e+12
    5.7031 1.8511e+12
    5.7155 1.8565e+12
    5.7279 1.8619e+12
    5.7403 1.8673e+12
    5.7527 1.8727e+12
    5.7651 1.8781e+12
    5.7775 1.8835e+12
    5.7899 1.8889e+12
    5.8023 1.8943e+12
    5.8147 1.8997e+12
    5.8271 1.9051e+12
    5.8395 1.9105e+12
    5.8519 1.9159e+12
    5.8643 1.9212e+12
    5.8767 1.9266e+12
    5.8891  1.932e+12
    5.9015 1.9374e+12
    5.9139 1.9428e+12
    5.9263 1.9481e+12
    5.9387 1.9535e+12
    5.9511 1.9589e+12
    5.9635 1.9642e+12
    5.9759 1.9696e+12
    5.9883  1.975e+12
    6.0007 1.9803e+12
    6.0131 1.9857e+12
    6.0255  1.991e+12
    6.0379 1.9964e+12
    6.0503 2.0018e+12
    6.0627 2.0071e+12
    6.0751 2.0125e+12
    6.0875 2.0178e+12
    6.0999 2.0231e+12
    6.1123 2.0285e+12
    6.1247 2.0338e+12
    6.1371 2.0392e+12
    6.1495 2.0445e+12
    6.1619 2.0498e+12
    6.1743 2.0552e+12
    6.1867 2.0605e+12
    6.1991 2.0658e+12
    6.2115 2.0711e+12
    6.2239 2.0765e+12
    6.2363 2.0818e+12
    6.2487 2.0871e+12
    6.2611 2.0924e+12
    6.2735 2.0977e+12
    6.2859  2.103e+12
    6.2983 2.1083e+12
    6.3107 2.1136e+12
     6.323  2.119e+12
    6.3354 2.1243e+12
    6.3478 2.1296e+12
    6.3602 2.1349e+12
    6.3726 2.1402e+12
     6.385 2.1454e+12
    6.3974 2.1507e+12
    6.4098  2.156e+12
    6.4222 2.1613e+12
    6.4346 2.1666e+12
     6.447 2.1719e+12
    6.4594 2.1771e+12
    6.4718 2.1824e+12
    6.4842 2.1877e+12
    6.4966  2.193e+12
     6.509 2.1982e+12
    6.5214 2.2035e+12
    6.5338 2.2088e+12
    6.5462  2.214e+12
    6.5586 2.2193e+12
     6.571 2.2245e+12
    6.5834 2.2298e+12
    6.5958  2.235e+12
    6.6082 2.2403e+12
    6.6206 2.2455e+12
     6.633 2.2508e+12
    6.6454  2.256e+12
    6.6578 2.2612e+12
    6.6702 2.2665e+12
    6.6826 2.2717e+12
     6.695 2.2769e+12
    6.7074 2.2822e+12
    6.7198 2.2874e+12
    6.7322 2.2926e+12
    6.7446 2.2978e+12
     6.757  2.303e+12
    6.7694 2.3082e+12
    6.7818 2.3135e+12
    6.7942 2.3187e+12
    6.8066 2.3239e+12
     6.819 2.3291e+12
    6.8314 2.3343e+12
    6.8438 2.3395e+12
    6.8562 2.3447e+12
    6.8686 2.3498e+12
     6.881  2.355e+12
    6.8934 2.3602e+12
    6.9058 2.3654e+12
    6.9182 2.3706e+12
    6.9306 2.3758e+12
     6.943 2.3809e+12
    6.9554 2.3861e+12
    6.9678 2.3913e+12
    6.9801 2.3964e+12
    6.9925 2.4016e+12
    7.0049 2.4067e+12
    7.0173 2.4119e+12
    7.0297 2.4171e+12
    7.0421 2.4222e+12
    7.0545 2.4274e+12
    7.0669 2.4325e+12
    7.0793 2.4377e+12
    7.0917 2.4428e+12
    7.1041 2.4479e+12
    7.1165 2.4531e+12
    7.1289 2.4582e+12
    7.1413 2.4633e+12
    7.1537 2.4684e+12
    7.1661 2.4736e+12
    7.1785 2.4787e+12
    7.1909 2.4838e+12
    7.2033 2.4889e+12
    7.2157  2.494e+12
    7.2281 2.4991e+12
    7.2405 2.5042e+12
    7.2529 2.5093e+12
    7.2653 2.5144e+12
    7.2777 2.5195e+12
    7.2901 2.5246e+12
    7.3025 2.5297e+12
    7.3149 2.5348e+12
    7.3273 2.5399e+12
    7.3397  2.545e+12
    7.3521 2.5501e+12
    7.3645 2.5551e+12
    7.3769 2.5602e+12
    7.3893 2.5653e+12
    7.4017 2.5703e+12
    7.4141 2.5754e+12
    7.4265 2.5805e+12
    7.4389 2.5855e+12
    7.4513 2.5906e+12
    7.4637 2.5956e+12
    7.4761 2.6007e+12
    7.4885 2.6057e+12
    7.5009 2.6108e+12
    7.5133 2.6158e+12
    7.5257 2.6208e+12
    7.5381 2.6259e+12
    7.5505 2.6309e+12
    7.5629 2.6359e+12
    7.5753 2.6409e+12
    7.5877  2.646e+12
    7.6001  2.651e+12
    7.6125  2.656e+12
    7.6249  2.661e+12
    7.6373  2.666e+12
    7.6496  2.671e+12
     7.662  2.676e+12
    7.6744  2.681e+12
    7.6868  2.686e+12
    7.6992  2.691e+12
    7.7116  2.696e+12
     7.724  2.701e+12
    7.7364 2.7059e+12
    7.7488 2.7109e+12
    7.7612 2.7159e+12
    7.7736 2.7209e+12
     7.786 2.7258e+12
    7.7984 2.7308e+12
    7.8108 2.7358e+12
    7.8232 2.7408e+12
    7.8356 2.7457e+12
     7.848 2.7506e+12
    7.8604 2.7556e+12
    7.8728 2.7605e+12
    7.8852 2.7655e+12
    7.8976 2.7704e+12
      7.91 2.7754e+12
    7.9224 2.7803e+12
    7.9348 2.7852e+12
    7.9472 2.7902e+12
    7.9596 2.7951e+12
     7.972    2.8e+12
    7.9844 2.8049e+12
    7.9968 2.8099e+12
    8.0092 2.8148e+12
    8.0216 2.8197e+12
     8.034 2.8246e+12
    8.0464 2.8295e+12
    8.0588 2.8344e+12
    8.0712 2.8393e+12
    8.0836 2.8442e+12
     8.096 2.8491e+12
    8.1084  2.854e+12
    8.1208 2.8588e+12
    8.1332 2.8637e+12
    8.1456 2.8686e+12
     8.158 2.8735e+12
    8.1704 2.8783e+12
    8.1828 2.8832e+12
    8.1952 2.8881e+12
    8.2076 2.8929e+12
      8.22 2.8978e+12
    8.2324 2.9026e+12
    8.2448 2.9075e+12
    8.2572 2.9124e+12
    8.2696 2.9172e+12
     8.282  2.922e+12
    8.2944 2.9269e+12
    8.3067 2.9317e+12
    8.3191 2.9365e+12
    8.3315 2.9414e+12
    8.3439 2.9462e+12
    8.3563  2.951e+12
    8.3687 2.9558e+12
    8.3811 2.9606e+12
    8.3935 2.9655e+12
    8.4059 2.9703e+12
    8.4183 2.9751e+12
    8.4307 2.9799e+12
    8.4431 2.9847e+12
    8.4555 2.9895e+12
    8.4679 2.9943e+12
    8.4803 2.9991e+12
    8.4927 3.0038e+12
    8.5051 3.0086e+12
    8.5175 3.0134e+12
    8.5299 3.0182e+12
    8.5423 3.0229e+12
    8.5547 3.0277e+12
    8.5671 3.0325e+12
    8.5795 3.0372e+12
    8.5919  3.042e+12
    8.6043 3.0467e+12
    8.6167 3.0515e+12
    8.6291 3.0563e+12
    8.6415  3.061e+12
    8.6539 3.0658e+12
    8.6663 3.0705e+12
    8.6787 3.0752e+12
    8.6911   3.08e+12
    8.7035 3.0847e+12
    8.7159 3.0894e+12
    8.7283 3.0941e+12
    8.7407 3.0989e+12
    8.7531 3.1036e+12
    8.7655 3.1083e+12
    8.7779  3.113e+12
    8.7903 3.1177e+12
    8.8027 3.1224e+12
    8.8151 3.1271e+12
    8.8275 3.1318e+12
    8.8399 3.1365e+12
    8.8523 3.1412e+12
    8.8647 3.1459e+12
    8.8771 3.1506e+12
    8.8895 3.1553e+12
    8.9019 3.1599e+12
    8.9143 3.1646e+12
    8.9267 3.1693e+12
    8.9391 3.1739e+12
    8.9515 3.1786e+12
    8.9639 3.1833e+12
    8.9762 3.1879e+12
    8.9886 3.1926e+12
     9.001 3.1972e+12
    9.0134 3.2019e+12
    9.0258 3.2065e+12
    9.0382 3.2112e+12
    9.0506 3.2158e+12
     9.063 3.2204e+12
    9.0754  3.225e+12
    9.0878 3.2297e+12
    9.1002 3.2343e+12
    9.1126 3.2389e+12
     9.125 3.2435e+12
    9.1374 3.2482e+12
    9.1498 3.2528e+12
    9.1622 3.2574e+12
    9.1746  3.262e+12
     9.187 3.2666e+12
    9.1994 3.2712e+12
    9.2118 3.2758e+12
    9.2242 3.2804e+12
    9.2366  3.285e+12
     9.249 3.2895e+12
    9.2614 3.2941e+12
    9.2738 3.2987e+12
    9.2862 3.3033e+12
    9.2986 3.3078e+12
     9.311 3.3124e+12
    9.3234  3.317e+12
    9.3358 3.3215e+12
    9.3482 3.3261e+12
    9.3606 3.3306e+12
     9.373 3.3352e+12
    9.3854 3.3397e+12
    9.3978 3.3443e+12
    9.4102 3.3488e+12
    9.4226 3.3534e+12
     9.435 3.3579e+12
    9.4474 3.3624e+12
    9.4598  3.367e+12
    9.4722 3.3715e+12
    9.4846  3.376e+12
     9.497 3.3805e+12
    9.5094  3.385e+12
    9.5218 3.3896e+12
    9.5342 3.3941e+12
    9.5466 3.3986e+12
     9.559 3.4031e+12
    9.5714 3.4076e+12
    9.5838 3.4121e+12
    9.5962 3.4166e+12
    9.6086  3.421e+12
     9.621 3.4255e+12
    9.6333   3.43e+12
    9.6457 3.4345e+12
    9.6581  3.439e+12
    9.6705 3.4434e+12
    9.6829 3.4479e+12
    9.6953 3.4524e+12
    9.7077 3.4568e+12
    9.7201 3.4613e+12
    9.7325 3.4657e+12
    9.7449 3.4702e+12
    9.7573 3.4746e+12
    9.7697 3.4791e+12
    9.7821 3.4835e+12
    9.7945  3.488e+12
    9.8069 3.4924e+12
    9.8193 3.4968e+12
    9.8317 3.5013e+12
    9.8441 3.5057e+12
    9.8565 3.5101e+12
    9.8689 3.5145e+12
    9.8813  3.519e+12
    9.8937 3.5234e+12
    9.9061 3.5278e+12
    9.9185 3.5322e+12
    9.9309 3.5366e+12
    9.9433  3.541e+12
    9.9557 3.5454e+12
    9.9681 3.5498e+12
    9.9805 3.5541e+12
    9.9929 3.5585e+12
    10.005 3.5629e+12
    10.018 3.5673e+12
     10.03 3.5717e+12
    10.042 3.5761e+12
    10.055 3.5804e+12
    10.067 3.5848e+12
     10.08 3.5891e+12
    10.092 3.5935e+12
    10.104 3.5979e+12
    10.117 3.6022e+12
    10.129 3.6066e+12
    10.142 3.6109e+12
    10.154 3.6153e+12
    10.166 3.6196e+12
    10.179 3.6239e+12
    10.191 3.6283e+12
    10.204 3.6326e+12
    10.216 3.6369e+12
    10.228 3.6413e+12
    10.241 3.6456e+12
    10.253 3.6499e+12
    10.266 3.6542e+12
    10.278 3.6585e+12
     10.29 3.6628e+12
    10.303 3.6671e+12
    10.315 3.6714e+12
    10.328 3.6757e+12
     10.34   3.68e+12
    10.352 3.6843e+12
    10.365 3.6886e+12
    10.377 3.6929e+12
     10.39 3.6972e+12
    10.402 3.7015e+12
    10.414 3.7057e+12
    10.427   3.71e+12
    10.439 3.7143e+12
    10.452 3.7185e+12
    10.464 3.7228e+12
    10.476 3.7271e+12
    10.489 3.7313e+12
    10.501 3.7356e+12
    10.514 3.7398e+12
    10.526 3.7441e+12
    10.538 3.7483e+12
    10.551 3.7525e+12
    10.563 3.7568e+12
    10.576  3.761e+12
    10.588 3.7652e+12
      10.6 3.7695e+12
    10.613 3.7737e+12
    10.625 3.7779e+12
    10.638 3.7821e+12
     10.65 3.7863e+12
    10.662 3.7906e+12
    10.675 3.7948e+12
    10.687  3.799e+12
      10.7 3.8032e+12
    10.712 3.8074e+12
    10.724 3.8116e+12
    10.737 3.8157e+12
    10.749 3.8199e+12
    10.762 3.8241e+12
    10.774 3.8283e+12
    10.786 3.8325e+12
    10.799 3.8367e+12
    10.811 3.8408e+12
    10.824  3.845e+12
    10.836 3.8492e+12
    10.848 3.8533e+12
    10.861 3.8575e+12
    10.873 3.8617e+12
    10.886 3.8658e+12
    10.898   3.87e+12
     10.91 3.8741e+12
    10.923 3.8782e+12
    10.935 3.8824e+12
    10.948 3.8865e+12
     10.96 3.8907e+12
    10.972 3.8948e+12
    10.985 3.8989e+12
    10.997  3.903e+12
     11.01 3.9072e+12
    11.022 3.9113e+12
    11.034 3.9154e+12
    11.047 3.9195e+12
    11.059 3.9236e+12
    11.072 3.9277e+12
    11.084 3.9318e+12
    11.096 3.9359e+12
    11.109   3.94e+12
    11.121 3.9441e+12
    11.134 3.9482e+12
    11.146 3.9523e+12
    11.158 3.9564e+12
    11.171 3.9605e+12
    11.183 3.9645e+12
    11.196 3.9686e+12
    11.208 3.9727e+12
     11.22 3.9767e+12
    11.233 3.9808e+12
    11.245 3.9849e+12
    11.258 3.9889e+12
     11.27  3.993e+12
    11.282  3.997e+12
    11.295 4.0011e+12
    11.307 4.0051e+12
    11.319 4.0092e+12
    11.332 4.0132e+12
    11.344 4.0173e+12
    11.357 4.0213e+12
    11.369 4.0253e+12
    11.381 4.0293e+12
    11.394 4.0334e+12
    11.406 4.0374e+12
    11.419 4.0414e+12
    11.431 4.0454e+12
    11.443 4.0495e+12
    11.456 4.0535e+12
    11.468 4.0575e+12
    11.481 4.0615e+12
    11.493 4.0655e+12
    11.505 4.0694e+12
    11.518 4.0734e+12
     11.53 4.0774e+12
    11.543 4.0814e+12
    11.555 4.0854e+12
    11.567 4.0894e+12
     11.58 4.0934e+12
    11.592 4.0973e+12
    11.605 4.1013e+12
    11.617 4.1053e+12
    11.629 4.1093e+12
    11.642 4.1132e+12
    11.654 4.1172e+12
    11.667 4.1211e+12
    11.679 4.1251e+12
    11.691  4.129e+12
    11.704  4.133e+12
    11.716 4.1369e+12
    11.729 4.1409e+12
    11.741 4.1448e+12
    11.753 4.1487e+12
    11.766 4.1527e+12
    11.778 4.1566e+12
    11.791 4.1605e+12
    11.803 4.1645e+12
    11.815 4.1684e+12
    11.828 4.1723e+12
     11.84 4.1762e+12
    11.853 4.1801e+12
    11.865  4.184e+12
    11.877 4.1879e+12
     11.89 4.1918e+12
    11.902 4.1957e+12
    11.915 4.1996e+12
    11.927 4.2035e+12
    11.939 4.2074e+12
    11.952 4.2113e+12
    11.964 4.2152e+12
    11.977 4.2191e+12
    11.989 4.2229e+12
    12.001 4.2268e+12
    12.014 4.2307e+12
    12.026 4.2346e+12
    12.039 4.2384e+12
    12.051 4.2423e+12
    12.063 4.2461e+12
    12.076   4.25e+12
    12.088 4.2539e+12
    12.101 4.2577e+12
    12.113 4.2616e+12
    12.125 4.2654e+12
    12.138 4.2692e+12
     12.15 4.2731e+12
    12.163 4.2769e+12
    12.175 4.2808e+12
    12.187 4.2846e+12
      12.2 4.2884e+12
    12.212 4.2922e+12
    12.225 4.2961e+12
    12.237 4.2999e+12
    12.249 4.3037e+12
    12.262 4.3075e+12
    12.274 4.3113e+12
    12.287 4.3151e+12
    12.299 4.3189e+12
    12.311 4.3227e+12
    12.324 4.3265e+12
    12.336 4.3303e+12
    12.349 4.3341e+12
    12.361 4.3379e+12
    12.373 4.3417e+12
    12.386 4.3455e+12
    12.398 4.3493e+12
    12.411  4.353e+12
    12.423 4.3568e+12
    12.435 4.3606e+12
    12.448 4.3644e+12
     12.46 4.3681e+12
    12.473 4.3719e+12
    12.485 4.3756e+12
    12.497 4.3794e+12
     12.51 4.3831e+12
    12.522 4.3869e+12
    12.535 4.3906e+12
    12.547 4.3944e+12
    12.559 4.3981e+12
    12.572 4.4019e+12
    12.584 4.4056e+12
    12.597 4.4093e+12
    12.609 4.4131e+12
    12.621 4.4168e+12
    12.634 4.4205e+12
    12.646 4.4242e+12
    12.658  4.428e+12
    12.671 4.4317e+12
    12.683 4.4354e+12
    12.696 4.4391e+12
    12.708 4.4428e+12
     12.72 4.4465e+12
    12.733 4.4502e+12
    12.745 4.4539e+12
    12.758 4.4576e+12
     12.77 4.4613e+12
    12.782  4.465e+12
    12.795 4.4687e+12
    12.807 4.4724e+12
     12.82 4.4761e+12
    12.832 4.4797e+12
    12.844 4.4834e+12
    12.857 4.4871e+12
    12.869 4.4907e+12
    12.882 4.4944e+12
    12.894 4.4981e+12
    12.906 4.5017e+12
    12.919 4.5054e+12
    12.931 4.5091e+12
    12.944 4.5127e+12
    12.956 4.5164e+12
    12.968   4.52e+12
    12.981 4.5237e+12
    12.993 4.5273e+12
    13.006 4.5309e+12
    13.018 4.5346e+12
     13.03 4.5382e+12
    13.043 4.5418e+12
    13.055 4.5455e+12
    13.068 4.5491e+12
     13.08 4.5527e+12
    13.092 4.5563e+12
    13.105   4.56e+12
    13.117 4.5636e+12
     13.13 4.5672e+12
    13.142 4.5708e+12
    13.154 4.5744e+12
    13.167  4.578e+12
    13.179 4.5816e+12
    13.192 4.5852e+12
    13.204 4.5888e+12
    13.216 4.5924e+12
    13.229  4.596e+12
    13.241 4.5996e+12
    13.254 4.6032e+12
    13.266 4.6067e+12
    13.278 4.6103e+12
    13.291 4.6139e+12
    13.303 4.6175e+12
    13.316  4.621e+12
    13.328 4.6246e+12
     13.34 4.6282e+12
    13.353 4.6317e+12
    13.365 4.6353e+12
    13.378 4.6388e+12
     13.39 4.6424e+12
    13.402 4.6459e+12
    13.415 4.6495e+12
    13.427  4.653e+12
     13.44 4.6566e+12
    13.452 4.6601e+12
    13.464 4.6636e+12
    13.477 4.6672e+12
    13.489 4.6707e+12
    13.502 4.6742e+12
    13.514 4.6778e+12
    13.526 4.6813e+12
    13.539 4.6848e+12
    13.551 4.6883e+12
    13.564 4.6918e+12
    13.576 4.6954e+12
    13.588 4.6989e+12
    13.601 4.7024e+12
    13.613 4.7059e+12
    13.626 4.7094e+12
    13.638 4.7129e+12
     13.65 4.7164e+12
    13.663 4.7199e+12
    13.675 4.7234e+12
    13.688 4.7268e+12
      13.7 4.7303e+12
    13.712 4.7338e+12
    13.725 4.7373e+12
    13.737 4.7408e+12
     13.75 4.7443e+12
    13.762 4.7477e+12
    13.774 4.7512e+12
    13.787 4.7547e+12
    13.799 4.7581e+12
    13.812 4.7616e+12
    13.824  4.765e+12
    13.836 4.7685e+12
    13.849  4.772e+12
    13.861 4.7754e+12
    13.874 4.7789e+12
    13.886 4.7823e+12
    13.898 4.7857e+12
    13.911 4.7892e+12
    13.923 4.7926e+12
    13.936 4.7961e+12
    13.948 4.7995e+12
     13.96 4.8029e+12
    13.973 4.8063e+12
    13.985 4.8098e+12
    13.997 4.8132e+12
     14.01 4.8166e+12
    14.022   4.82e+12
    14.035 4.8234e+12
    14.047 4.8268e+12
    14.059 4.8303e+12
    14.072 4.8337e+12
    14.084 4.8371e+12
    14.097 4.8405e+12
    14.109 4.8439e+12
    14.121 4.8473e+12
    14.134 4.8506e+12
    14.146  4.854e+12
    14.159 4.8574e+12
    14.171 4.8608e+12
    14.183 4.8642e+12
    14.196 4.8676e+12
    14.208 4.8709e+12
    14.221 4.8743e+12
    14.233 4.8777e+12
    14.245 4.8811e+12
    14.258 4.8844e+12
     14.27 4.8878e+12
    14.283 4.8912e+12
    14.295 4.8945e+12
    14.307 4.8979e+12
     14.32 4.9012e+12
    14.332 4.9046e+12
    14.345 4.9079e+12
    14.357 4.9113e+12
    14.369 4.9146e+12
    14.382  4.918e+12
    14.394 4.9213e+12
    14.407 4.9246e+12
    14.419 4.9279e+12
    14.431 4.9313e+12
    14.444 4.9346e+12
    14.456 4.9379e+12
    14.469 4.9413e+12
    14.481 4.9446e+12
    14.493 4.9479e+12
    14.506 4.9512e+12
    14.518 4.9545e+12
    14.531 4.9578e+12
    14.543 4.9612e+12
    14.555 4.9645e+12
    14.568 4.9678e+12
     14.58 4.9711e+12
    14.593 4.9744e+12
    14.605 4.9777e+12
    14.617 4.9809e+12
     14.63 4.9843e+12
    14.642 4.9875e+12
    14.655 4.9908e+12
    14.667 4.9941e+12
    14.679 4.9974e+12
    14.692 5.0007e+12
    14.704 5.0039e+12
    14.717 5.0072e+12
    14.729 5.0105e+12
    14.741 5.0137e+12
    14.754  5.017e+12
    14.766 5.0203e+12
    14.779 5.0235e+12
    14.791 5.0268e+12
    14.803   5.03e+12
    14.816 5.0333e+12
    14.828 5.0366e+12
    14.841 5.0398e+12
    14.853  5.043e+12
    14.865 5.0463e+12
    14.878 5.0495e+12
     14.89 5.0528e+12
    14.903  5.056e+12
    14.915 5.0592e+12
    14.927 5.0625e+12
     14.94 5.0657e+12
    14.952 5.0689e+12
    14.965 5.0722e+12
    14.977 5.0754e+12
    14.989 5.0786e+12
    15.002 5.0818e+12
    15.014  5.085e+12
    15.027 5.0882e+12
    15.039 5.0914e+12
    15.051 5.0947e+12
    15.064 5.0978e+12
    15.076  5.101e+12
    15.089 5.1042e+12
    15.101 5.1075e+12
    15.113 5.1106e+12
    15.126 5.1139e+12
    15.138  5.117e+12
    15.151 5.1202e+12
    15.163 5.1234e+12
    15.175 5.1266e+12
    15.188 5.1297e+12
      15.2 5.1329e+12
    15.213 5.1361e+12
    15.225 5.1393e+12
    15.237 5.1424e+12
     15.25 5.1456e+12
    15.262 5.1488e+12
    15.275  5.152e+12
    15.287 5.1551e+12
    15.299 5.1583e+12
    15.312 5.1614e+12
    15.324 5.1646e+12
    15.336 5.1677e+12
    15.349 5.1709e+12
    15.361  5.174e+12
    15.374 5.1772e+12
    15.386 5.1803e+12
    15.398 5.1834e+12
    15.411 5.1866e+12
    15.423 5.1897e+12
    15.436 5.1928e+12
    15.448  5.196e+12
     15.46 5.1991e+12
    15.473 5.2022e+12
    15.485 5.2054e+12
    15.498 5.2085e+12
     15.51 5.2116e+12
    15.522 5.2147e+12
    15.535 5.2178e+12
    15.547 5.2209e+12
     15.56  5.224e+12
    15.572 5.2271e+12
    15.584 5.2302e+12
    15.597 5.2333e+12
    15.609 5.2365e+12
    15.622 5.2396e+12
    15.634 5.2426e+12
    15.646 5.2457e+12
    15.659 5.2488e+12
    15.671 5.2519e+12
    15.684  5.255e+12
    15.696 5.2581e+12
    15.708 5.2611e+12
    15.721 5.2642e+12
    15.733 5.2673e+12
    15.746 5.2704e+12
    15.758 5.2735e+12
     15.77 5.2765e+12
    15.783 5.2796e+12
    15.795 5.2826e+12
    15.808 5.2857e+12
     15.82 5.2888e+12
    15.832 5.2918e+12
    15.845 5.2949e+12
    15.857 5.2979e+12
     15.87  5.301e+12
    15.882  5.304e+12
    15.894 5.3071e+12
    15.907 5.3101e+12
    15.919 5.3132e+12
    15.932 5.3162e+12
    15.944 5.3193e+12
    15.956 5.3223e+12
    15.969 5.3253e+12
    15.981 5.3284e+12
    15.994 5.3314e+12
    16.006 5.3344e+12
    16.018 5.3374e+12
    16.031 5.3404e+12
    16.043 5.3435e+12
    16.056 5.3465e+12
    16.068 5.3495e+12
     16.08 5.3525e+12
    16.093 5.3555e+12
    16.105 5.3585e+12
    16.118 5.3615e+12
     16.13 5.3645e+12
    16.142 5.3675e+12
    16.155 5.3705e+12
    16.167 5.3735e+12
     16.18 5.3765e+12
    16.192 5.3795e+12
    16.204 5.3825e+12
    16.217 5.3855e+12
    16.229 5.3885e+12
    16.242 5.3915e+12
    16.254 5.3944e+12
    16.266 5.3974e+12
    16.279 5.4004e+12
    16.291 5.4034e+12
    16.304 5.4063e+12
    16.316 5.4093e+12
    16.328 5.4123e+12
    16.341 5.4152e+12
    16.353 5.4182e+12
    16.366 5.4212e+12
    16.378 5.4241e+12
     16.39 5.4271e+12
    16.403   5.43e+12
    16.415  5.433e+12
    16.428 5.4359e+12
     16.44 5.4389e+12
    16.452 5.4418e+12
    16.465 5.4448e+12
    16.477 5.4477e+12
     16.49 5.4506e+12
    16.502 5.4536e+12
    16.514 5.4565e+12
    16.527 5.4595e+12
    16.539 5.4624e+12
    16.552 5.4653e+12
    16.564 5.4682e+12
    16.576 5.4712e+12
    16.589 5.4741e+12
    16.601  5.477e+12
    16.613 5.4799e+12
    16.626 5.4828e+12
    16.638 5.4857e+12
    16.651 5.4887e+12
    16.663 5.4916e+12
    16.675 5.4945e+12
    16.688 5.4974e+12
      16.7 5.5003e+12
    16.713 5.5032e+12
    16.725 5.5061e+12
    16.737  5.509e+12
     16.75 5.5119e+12
    16.762 5.5148e+12
    16.775 5.5177e+12
    16.787 5.5205e+12
    16.799 5.5234e+12
    16.812 5.5263e+12
    16.824 5.5292e+12
    16.837 5.5321e+12
    16.849 5.5349e+12
    16.861 5.5378e+12
    16.874 5.5407e+12
    16.886 5.5436e+12
    16.899 5.5464e+12
    16.911 5.5493e+12
    16.923 5.5522e+12
    16.936  5.555e+12
    16.948 5.5579e+12
    16.961 5.5607e+12
    16.973 5.5636e+12
    16.985 5.5664e+12
    16.998 5.5693e+12
     17.01 5.5722e+12
    17.023  5.575e+12
    17.035 5.5778e+12
    17.047 5.5807e+12
     17.06 5.5835e+12
    17.072 5.5864e+12
    17.085 5.5892e+12
    17.097  5.592e+12
    17.109 5.5949e+12
    17.122 5.5977e+12
    17.134 5.6005e+12
    17.147 5.6034e+12
    17.159 5.6062e+12
    17.171  5.609e+12
    17.184 5.6118e+12
    17.196 5.6146e+12
    17.209 5.6175e+12
    17.221 5.6203e+12
    17.233 5.6231e+12
    17.246 5.6259e+12
    17.258 5.6287e+12
    17.271 5.6315e+12
    17.283 5.6343e+12
    17.295 5.6371e+12
    17.308 5.6399e+12
     17.32 5.6427e+12
    17.333 5.6455e+12
    17.345 5.6483e+12
    17.357 5.6511e+12
     17.37 5.6539e+12
    17.382 5.6567e+12
    17.395 5.6595e+12
    17.407 5.6622e+12
    17.419  5.665e+12
    17.432 5.6678e+12
    17.444 5.6706e+12
    17.457 5.6733e+12
    17.469 5.6761e+12
    17.481 5.6789e+12
    17.494 5.6817e+12
    17.506 5.6844e+12
    17.519 5.6872e+12
    17.531 5.6899e+12
    17.543 5.6927e+12
    17.556 5.6955e+12
    17.568 5.6982e+12
    17.581  5.701e+12
    17.593 5.7037e+12
    17.605 5.7065e+12
    17.618 5.7092e+12
     17.63  5.712e+12
    17.643 5.7147e+12
    17.655 5.7175e+12
    17.667 5.7202e+12
     17.68 5.7229e+12
    17.692 5.7257e+12
    17.705 5.7284e+12
    17.717 5.7312e+12
    17.729 5.7339e+12
    17.742 5.7366e+12
    17.754 5.7394e+12
    17.767  5.742e+12
    17.779 5.7448e+12
    17.791 5.7475e+12
    17.804 5.7502e+12
    17.816 5.7529e+12
    17.829 5.7557e+12
    17.841 5.7584e+12
    17.853 5.7611e+12
    17.866 5.7638e+12
    17.878 5.7665e+12
    17.891 5.7692e+12
    17.903 5.7719e+12
    17.915 5.7746e+12
    17.928 5.7773e+12
     17.94   5.78e+12
    17.952 5.7827e+12
    17.965 5.7854e+12
    17.977 5.7881e+12
     17.99 5.7908e+12
    18.002 5.7935e+12
    18.014 5.7962e+12
    18.027 5.7988e+12
    18.039 5.8015e+12
    18.052 5.8042e+12
    18.064 5.8069e+12
    18.076 5.8095e+12
    18.089 5.8122e+12
    18.101 5.8149e+12
    18.114 5.8176e+12
    18.126 5.8202e+12
    18.138 5.8229e+12
    18.151 5.8256e+12
    18.163 5.8282e+12
    18.176 5.8309e+12
    18.188 5.8336e+12
      18.2 5.8362e+12
    18.213 5.8389e+12
    18.225 5.8415e+12
    18.238 5.8442e+12
     18.25 5.8468e+12
    18.262 5.8495e+12
    18.275 5.8521e+12
    18.287 5.8548e+12
      18.3 5.8574e+12
    18.312   5.86e+12
    18.324 5.8627e+12
    18.337 5.8653e+12
    18.349  5.868e+12
    18.362 5.8706e+12
    18.374 5.8732e+12
    18.386 5.8759e+12
    18.399 5.8785e+12
    18.411 5.8811e+12
    18.424 5.8837e+12
    18.436 5.8863e+12
    18.448  5.889e+12
    18.461 5.8916e+12
    18.473 5.8942e+12
    18.486 5.8968e+12
    18.498 5.8994e+12
     18.51  5.902e+12
    18.523 5.9046e+12
    18.535 5.9073e+12
    18.548 5.9098e+12
     18.56 5.9125e+12
    18.572 5.9151e+12
    18.585 5.9176e+12
    18.597 5.9203e+12
     18.61 5.9228e+12
    18.622 5.9255e+12
    18.634  5.928e+12
    18.647 5.9306e+12
    18.659 5.9332e+12
    18.672 5.9358e+12
    18.684 5.9384e+12
    18.696  5.941e+12
    18.709 5.9436e+12
    18.721 5.9461e+12
    18.734 5.9487e+12
    18.746 5.9513e+12
    18.758 5.9538e+12
    18.771 5.9564e+12
    18.783  5.959e+12
    18.796 5.9615e+12
    18.808 5.9641e+12
     18.82 5.9667e+12
    18.833 5.9693e+12
    18.845 5.9718e+12
    18.858 5.9743e+12
     18.87 5.9769e+12
    18.882 5.9795e+12
    18.895  5.982e+12
    18.907 5.9846e+12
     18.92 5.9871e+12
    18.932 5.9897e+12
    18.944 5.9922e+12
    18.957 5.9948e+12
    18.969 5.9973e+12
    18.982 5.9999e+12
    18.994 6.0024e+12
    19.006 6.0049e+12
    19.019 6.0075e+12
    19.031   6.01e+12
    19.044 6.0125e+12
    19.056 6.0151e+12
    19.068 6.0176e+12
    19.081 6.0201e+12
    19.093 6.0226e+12
    19.106 6.0252e+12
    19.118 6.0277e+12
     19.13 6.0302e+12
    19.143 6.0327e+12
    19.155 6.0352e+12
    19.168 6.0378e+12
     19.18 6.0403e+12
    19.192 6.0428e+12
    19.205 6.0453e+12
    19.217 6.0478e+12
     19.23 6.0503e+12
    19.242 6.0528e+12
    19.254 6.0553e+12
    19.267 6.0578e+12
    19.279 6.0603e+12
    19.291 6.0628e+12
    19.304 6.0653e+12
    19.316 6.0678e+12
    19.329 6.0703e+12
    19.341 6.0728e+12
    19.353 6.0752e+12
    19.366 6.0777e+12
    19.378 6.0802e+12
    19.391 6.0827e+12
    19.403 6.0852e+12
    19.415 6.0877e+12
    19.428 6.0901e+12
     19.44 6.0926e+12
    19.453 6.0951e+12
    19.465 6.0976e+12
    19.477    6.1e+12
     19.49 6.1025e+12
    19.502  6.105e+12
    19.515 6.1074e+12
    19.527 6.1099e+12
    19.539 6.1123e+12
    19.552 6.1148e+12
    19.564 6.1173e+12
    19.577 6.1197e+12
    19.589 6.1222e+12
    19.601 6.1246e+12
    19.614 6.1271e+12
    19.626 6.1295e+12
    19.639  6.132e+12
    19.651 6.1344e+12
    19.663 6.1369e+12
    19.676 6.1393e+12
    19.688 6.1418e+12
    19.701 6.1442e+12
    19.713 6.1466e+12
    19.725 6.1491e+12
    19.738 6.1515e+12
     19.75 6.1539e+12
    19.763 6.1564e+12
    19.775 6.1588e+12
    19.787 6.1612e+12
      19.8 6.1637e+12
    19.812 6.1661e+12
    19.825 6.1685e+12
    19.837 6.1709e+12
    19.849 6.1733e+12
    19.862 6.1758e+12
    19.874 6.1782e+12
    19.887 6.1806e+12
    19.899  6.183e+12
    19.911 6.1854e+12
    19.924 6.1878e+12
    19.936 6.1902e+12
    19.949 6.1926e+12
    19.961  6.195e+12
    19.973 6.1974e+12
    19.986 6.1998e+12
    19.998 6.2022e+12
    20.011 6.2046e+12
    20.023  6.207e+12
    20.035 6.2094e+12
    20.048 6.2118e+12
     20.06 6.2142e+12
    20.073 6.2166e+12
    20.085  6.219e+12
    20.097 6.2214e+12
     20.11 6.2238e+12
    20.122 6.2261e+12
    20.135 6.2285e+12
    20.147 6.2309e+12
    20.159 6.2333e+12
    20.172 6.2357e+12
    20.184  6.238e+12
    20.197 6.2404e+12
    20.209 6.2428e+12
    20.221 6.2452e+12
    20.234 6.2475e+12
    20.246 6.2499e+12
    20.259 6.2523e+12
    20.271 6.2546e+12
    20.283  6.257e+12
    20.296 6.2593e+12
    20.308 6.2617e+12
    20.321  6.264e+12
    20.333 6.2664e+12
    20.345 6.2688e+12
    20.358 6.2711e+12
     20.37 6.2735e+12
    20.383 6.2758e+12
    20.395 6.2781e+12
    20.407 6.2805e+12
     20.42 6.2829e+12
    20.432 6.2852e+12
    20.445 6.2875e+12
    20.457 6.2898e+12
    20.469 6.2922e+12
    20.482 6.2945e+12
    20.494 6.2968e+12
    20.507 6.2992e+12
    20.519 6.3015e+12
    20.531 6.3039e+12
    20.544 6.3062e+12
    20.556 6.3085e+12
    20.569 6.3108e+12
    20.581 6.3131e+12
    20.593 6.3155e+12
    20.606 6.3178e+12
    20.618 6.3201e+12
     20.63 6.3224e+12
    20.643 6.3248e+12
    20.655 6.3271e+12
    20.668 6.3294e+12
     20.68 6.3317e+12
    20.692  6.334e+12
    20.705 6.3363e+12
    20.717 6.3386e+12
     20.73 6.3409e+12
    20.742 6.3432e+12
    20.754 6.3455e+12
    20.767 6.3478e+12
    20.779 6.3501e+12
    20.792 6.3524e+12
    20.804 6.3547e+12
    20.816  6.357e+12
    20.829 6.3593e+12
    20.841 6.3616e+12
    20.854 6.3639e+12
    20.866 6.3662e+12
    20.878 6.3684e+12
    20.891 6.3707e+12
    20.903  6.373e+12
    20.916 6.3753e+12
    20.928 6.3776e+12
     20.94 6.3799e+12
    20.953 6.3821e+12
    20.965 6.3844e+12
    20.978 6.3867e+12
     20.99  6.389e+12
    21.002 6.3912e+12
    21.015 6.3935e+12
    21.027 6.3958e+12
     21.04  6.398e+12
    21.052 6.4003e+12
    21.064 6.4025e+12
    21.077 6.4048e+12
    21.089 6.4071e+12
    21.102 6.4093e+12
    21.114 6.4116e+12
    21.126 6.4138e+12
    21.139 6.4161e+12
    21.151 6.4183e+12
    21.164 6.4206e+12
    21.176 6.4228e+12
    21.188 6.4251e+12
    21.201 6.4273e+12
    21.213 6.4296e+12
    21.226 6.4318e+12
    21.238  6.434e+12
     21.25 6.4363e+12
    21.263 6.4385e+12
    21.275 6.4408e+12
    21.288  6.443e+12
      21.3 6.4453e+12
    21.312 6.4474e+12
    21.325 6.4497e+12
    21.337 6.4519e+12
     21.35 6.4542e+12
    21.362 6.4564e+12
    21.374 6.4586e+12
    21.387 6.4608e+12
    21.399 6.4631e+12
    21.412 6.4653e+12
    21.424 6.4675e+12
    21.436 6.4697e+12
    21.449 6.4719e+12
    21.461 6.4741e+12
    21.474 6.4764e+12
    21.486 6.4786e+12
    21.498 6.4808e+12
    21.511  6.483e+12
    21.523 6.4852e+12
    21.536 6.4874e+12
    21.548 6.4896e+12
     21.56 6.4918e+12
    21.573  6.494e+12
    21.585 6.4962e+12
    21.598 6.4984e+12
     21.61 6.5006e+12
    21.622 6.5028e+12
    21.635  6.505e+12
    21.647 6.5072e+12
     21.66 6.5094e+12
    21.672 6.5116e+12
    21.684 6.5137e+12
    21.697 6.5159e+12
    21.709 6.5181e+12
    21.722 6.5203e+12
    21.734 6.5225e+12
    21.746 6.5247e+12
    21.759 6.5268e+12
    21.771  6.529e+12
    21.784 6.5312e+12
    21.796 6.5334e+12
    21.808 6.5355e+12
    21.821 6.5377e+12
    21.833 6.5399e+12
    21.846  6.542e+12
    21.858 6.5442e+12
     21.87 6.5464e+12
    21.883 6.5486e+12
    21.895 6.5507e+12
    21.908 6.5529e+12
     21.92  6.555e+12
    21.932 6.5572e+12
    21.945 6.5594e+12
    21.957 6.5615e+12
    21.969 6.5636e+12
    21.982 6.5658e+12
    21.994  6.568e+12
    22.007 6.5701e+12
    22.019 6.5723e+12
    22.031 6.5744e+12
    22.044 6.5765e+12
    22.056 6.5787e+12
    22.069 6.5809e+12
    22.081  6.583e+12
    22.093 6.5851e+12
    22.106 6.5873e+12
    22.118 6.5894e+12
    22.131 6.5915e+12
    22.143 6.5937e+12
    22.155 6.5958e+12
    22.168 6.5979e+12
     22.18 6.6001e+12
    22.193 6.6022e+12
    22.205 6.6044e+12
    22.217 6.6065e+12
     22.23 6.6086e+12
    22.242 6.6107e+12
    22.255 6.6128e+12
    22.267 6.6149e+12
    22.279 6.6171e+12
    22.292 6.6192e+12
    22.304 6.6213e+12
    22.317 6.6235e+12
    22.329 6.6255e+12
    22.341 6.6277e+12
    22.354 6.6298e+12
    22.366 6.6319e+12
    22.379  6.634e+12
    22.391 6.6361e+12
    22.403 6.6382e+12
    22.416 6.6403e+12
    22.428 6.6424e+12
    22.441 6.6445e+12
    22.453 6.6466e+12
    22.465 6.6487e+12
    22.478 6.6508e+12
     22.49 6.6529e+12
    22.503  6.655e+12
    22.515 6.6571e+12
    22.527 6.6592e+12
     22.54 6.6613e+12
    22.552 6.6634e+12
    22.565 6.6654e+12
    22.577 6.6675e+12
    22.589 6.6696e+12
    22.602 6.6717e+12
    22.614 6.6738e+12
    22.627 6.6759e+12
    22.639 6.6779e+12
    22.651   6.68e+12
    22.664 6.6821e+12
    22.676 6.6842e+12
    22.689 6.6862e+12
    22.701 6.6883e+12
    22.713 6.6904e+12
    22.726 6.6925e+12
    22.738 6.6945e+12
    22.751 6.6966e+12
    22.763 6.6987e+12
    22.775 6.7007e+12
    22.788 6.7028e+12
      22.8 6.7048e+12
    22.813 6.7069e+12
    22.825  6.709e+12
    22.837  6.711e+12
     22.85 6.7131e+12
    22.862 6.7151e+12
    22.875 6.7172e+12
    22.887 6.7192e+12
    22.899 6.7213e+12
    22.912 6.7233e+12
    22.924 6.7254e+12
    22.937 6.7274e+12
    22.949 6.7295e+12
    22.961 6.7315e+12
    22.974 6.7336e+12
    22.986 6.7356e+12
    22.999 6.7377e+12
    23.011 6.7397e+12
    23.023 6.7417e+12
    23.036 6.7438e+12
    23.048 6.7458e+12
    23.061 6.7478e+12
    23.073 6.7499e+12
    23.085 6.7519e+12
    23.098  6.754e+12
     23.11  6.756e+12
    23.123  6.758e+12
    23.135   6.76e+12
    23.147 6.7621e+12
     23.16 6.7641e+12
    23.172 6.7661e+12
    23.185 6.7681e+12
    23.197 6.7701e+12
    23.209 6.7722e+12
    23.222 6.7742e+12
    23.234 6.7762e+12
    23.247 6.7782e+12
    23.259 6.7803e+12
    23.271 6.7823e+12
    23.284 6.7843e+12
    23.296 6.7862e+12
    23.308 6.7883e+12
    23.321 6.7903e+12
    23.333 6.7923e+12
    23.346 6.7943e+12
    23.358 6.7963e+12
     23.37 6.7983e+12
    23.383 6.8003e+12
    23.395 6.8023e+12
    23.408 6.8043e+12
     23.42 6.8063e+12
    23.432 6.8083e+12
    23.445 6.8103e+12
    23.457 6.8123e+12
     23.47 6.8143e+12
    23.482 6.8163e+12
    23.494 6.8183e+12
    23.507 6.8202e+12
    23.519 6.8222e+12
    23.532 6.8242e+12
    23.544 6.8262e+12
    23.556 6.8282e+12
    23.569 6.8302e+12
    23.581 6.8321e+12
    23.594 6.8341e+12
    23.606 6.8361e+12
    23.618 6.8381e+12
    23.631   6.84e+12
    23.643  6.842e+12
    23.656  6.844e+12
    23.668  6.846e+12
     23.68 6.8479e+12
    23.693 6.8499e+12
    23.705 6.8518e+12
    23.718 6.8539e+12
     23.73 6.8558e+12
    23.742 6.8578e+12
    23.755 6.8597e+12
    23.767 6.8617e+12
     23.78 6.8636e+12
    23.792 6.8656e+12
    23.804 6.8676e+12
    23.817 6.8695e+12
    23.829 6.8715e+12
    23.842 6.8734e+12
    23.854 6.8754e+12
    23.866 6.8774e+12
    23.879 6.8793e+12
    23.891 6.8812e+12
    23.904 6.8832e+12
    23.916 6.8851e+12
    23.928 6.8871e+12
    23.941  6.889e+12
    23.953  6.891e+12
    23.966 6.8929e+12
    23.978 6.8949e+12
     23.99 6.8968e+12
    24.003 6.8987e+12
    24.015 6.9007e+12
    24.028 6.9026e+12
     24.04 6.9045e+12
    24.052 6.9065e+12
    24.065 6.9084e+12
    24.077 6.9103e+12
     24.09 6.9123e+12
    24.102 6.9142e+12
    24.114 6.9161e+12
    24.127  6.918e+12
    24.139   6.92e+12
    24.152 6.9219e+12
    24.164 6.9238e+12
    24.176 6.9257e+12
    24.189 6.9277e+12
    24.201 6.9295e+12
    24.214 6.9315e+12
    24.226 6.9334e+12
    24.238 6.9353e+12
    24.251 6.9372e+12
    24.263 6.9391e+12
    24.276 6.9411e+12
    24.288  6.943e+12
      24.3 6.9449e+12
    24.313 6.9468e+12
    24.325 6.9487e+12
    24.338 6.9506e+12
     24.35 6.9525e+12
    24.362 6.9544e+12
    24.375 6.9563e+12
    24.387 6.9582e+12
      24.4 6.9601e+12
    24.412  6.962e+12
    24.424 6.9639e+12
    24.437 6.9658e+12
    24.449 6.9677e+12
    24.462 6.9696e+12
    24.474 6.9715e+12
    24.486 6.9734e+12
    24.499 6.9753e+12
    24.511 6.9772e+12
    24.524 6.9791e+12
    24.536 6.9809e+12
    24.548 6.9828e+12
    24.561 6.9847e+12
    24.573 6.9866e+12
    24.585 6.9885e+12
    24.598 6.9903e+12
     24.61 6.9922e+12
    24.623 6.9941e+12
    24.635  6.996e+12
    24.647 6.9979e+12
     24.66 6.9997e+12
    24.672 7.0016e+12
    24.685 7.0035e+12
    24.697 7.0053e+12
    24.709 7.0072e+12
    24.722 7.0091e+12
    24.734 7.0109e+12
    24.747 7.0128e+12
    24.759 7.0147e+12
    24.771 7.0165e+12
    24.784 7.0184e+12
    24.796 7.0203e+12
    24.809 7.0221e+12
    24.821  7.024e+12
    24.833 7.0259e+12
    24.846 7.0277e+12
    24.858 7.0296e+12
    24.871 7.0314e+12
    24.883 7.0333e+12
    24.895 7.0351e+12
    24.908  7.037e+12
     24.92 7.0388e+12
    24.933 7.0407e+12
    24.945 7.0426e+12
    24.957 7.0444e+12
     24.97 7.0462e+12
    24.982 7.0481e+12
    24.995 7.0499e+12
    25.007 7.0518e+12
    25.019 7.0536e+12
    25.032 7.0554e+12
    25.044 7.0573e+12
    25.057 7.0591e+12
    25.069  7.061e+12
    25.081 7.0628e+12
    25.094 7.0646e+12
    25.106 7.0665e+12
    25.119 7.0683e+12
    25.131 7.0701e+12
    25.143  7.072e+12
    25.156 7.0738e+12
    25.168 7.0756e+12
    25.181 7.0775e+12
    25.193 7.0793e+12
    25.205 7.0811e+12
    25.218 7.0829e+12
     25.23 7.0847e+12
    25.243 7.0866e+12
    25.255 7.0884e+12
    25.267 7.0902e+12
     25.28  7.092e+12
    25.292 7.0938e+12
    25.305 7.0957e+12
    25.317 7.0975e+12
    25.329 7.0993e+12
    25.342 7.1011e+12
    25.354 7.1029e+12
    25.367 7.1047e+12
    25.379 7.1065e+12
    25.391 7.1083e+12
    25.404 7.1102e+12
    25.416 7.1119e+12
    25.429 7.1138e+12
    25.441 7.1155e+12
    25.453 7.1173e+12
    25.466 7.1192e+12
    25.478  7.121e+12
    25.491 7.1228e+12
    25.503 7.1246e+12
    25.515 7.1264e+12
    25.528 7.1281e+12
     25.54   7.13e+12
    25.553 7.1317e+12
    25.565 7.1335e+12
    25.577 7.1353e+12
     25.59 7.1371e+12
    25.602 7.1389e+12
    25.615 7.1407e+12
    25.627 7.1425e+12
    25.639 7.1443e+12
    25.652 7.1461e+12
    25.664 7.1478e+12
    25.677 7.1496e+12
    25.689 7.1514e+12
    25.701 7.1532e+12
    25.714  7.155e+12
    25.726 7.1568e+12
    25.739 7.1585e+12
    25.751 7.1603e+12
    25.763 7.1621e+12
    25.776 7.1639e+12
    25.788 7.1656e+12
    25.801 7.1674e+12
    25.813 7.1691e+12
    25.825 7.1709e+12
    25.838 7.1727e+12
     25.85 7.1745e+12
    25.863 7.1762e+12
    25.875  7.178e+12
    25.887 7.1798e+12
      25.9 7.1815e+12
    25.912 7.1833e+12
    25.924  7.185e+12
    25.937 7.1868e+12
    25.949 7.1886e+12
    25.962 7.1903e+12
    25.974 7.1921e+12
    25.986 7.1938e+12
    25.999 7.1956e+12
    26.011 7.1974e+12
    26.024 7.1991e+12
    26.036 7.2009e+12
    26.048 7.2026e+12
    26.061 7.2044e+12
    26.073 7.2061e+12
    26.086 7.2079e+12
    26.098 7.2096e+12
     26.11 7.2114e+12
    26.123 7.2131e+12
    26.135 7.2149e+12
    26.148 7.2166e+12
     26.16 7.2183e+12
    26.172 7.2201e+12
    26.185 7.2218e+12
    26.197 7.2236e+12
     26.21 7.2253e+12
    26.222  7.227e+12
    26.234 7.2287e+12
    26.247 7.2305e+12
    26.259 7.2322e+12
    26.272 7.2339e+12
    26.284 7.2357e+12
    26.296 7.2374e+12
    26.309 7.2391e+12
    26.321 7.2409e+12
    26.334 7.2426e+12
    26.346 7.2443e+12
    26.358  7.246e+12
    26.371 7.2478e+12
    26.383 7.2495e+12
    26.396 7.2512e+12
    26.408 7.2529e+12
     26.42 7.2546e+12
    26.433 7.2564e+12
    26.445 7.2581e+12
    26.458 7.2598e+12
     26.47 7.2615e+12
    26.482 7.2632e+12
    26.495 7.2649e+12
    26.507 7.2667e+12
     26.52 7.2684e+12
    26.532 7.2701e+12
    26.544 7.2718e+12
    26.557 7.2735e+12
    26.569 7.2752e+12
    26.582 7.2769e+12
    26.594 7.2786e+12
    26.606 7.2803e+12
    26.619  7.282e+12
    26.631 7.2837e+12
    26.644 7.2854e+12
    26.656 7.2871e+12
    26.668 7.2888e+12
    26.681 7.2905e+12
    26.693 7.2922e+12
    26.706 7.2939e+12
    26.718 7.2956e+12
     26.73 7.2973e+12
    26.743  7.299e+12
    26.755 7.3007e+12
    26.768 7.3024e+12
     26.78 7.3041e+12
    26.792 7.3058e+12
    26.805 7.3075e+12
    26.817 7.3092e+12
     26.83 7.3108e+12
    26.842 7.3125e+12
    26.854 7.3142e+12
    26.867 7.3159e+12
    26.879 7.3176e+12
    26.892 7.3193e+12
    26.904 7.3209e+12
    26.916 7.3226e+12
    26.929 7.3243e+12
    26.941  7.326e+12
    26.954 7.3277e+12
    26.966 7.3293e+12
    26.978  7.331e+12
    26.991 7.3327e+12
    27.003 7.3343e+12
    27.016  7.336e+12
    27.028 7.3377e+12
     27.04 7.3394e+12
    27.053  7.341e+12
    27.065 7.3427e+12
    27.078 7.3444e+12
     27.09  7.346e+12
    27.102 7.3477e+12
    27.115 7.3494e+12
    27.127  7.351e+12
     27.14 7.3527e+12
    27.152 7.3543e+12
    27.164  7.356e+12
    27.177 7.3577e+12
    27.189 7.3593e+12
    27.202  7.361e+12
    27.214 7.3626e+12
    27.226 7.3642e+12
    27.239 7.3659e+12
    27.251 7.3676e+12
    27.263 7.3692e+12
    27.276 7.3709e+12
    27.288 7.3725e+12
    27.301 7.3742e+12
    27.313 7.3758e+12
    27.325 7.3775e+12
    27.338 7.3792e+12
     27.35 7.3808e+12
    27.363 7.3824e+12
    27.375 7.3841e+12
    27.387 7.3857e+12
      27.4 7.3874e+12
    27.412  7.389e+12
    27.425 7.3906e+12
    27.437 7.3923e+12
    27.449 7.3939e+12
    27.462 7.3955e+12
    27.474 7.3972e+12
    27.487 7.3988e+12
    27.499 7.4004e+12
    27.511 7.4021e+12
    27.524 7.4037e+12
    27.536 7.4053e+12
    27.549  7.407e+12
    27.561 7.4086e+12
    27.573 7.4102e+12
    27.586 7.4118e+12
    27.598 7.4135e+12
    27.611 7.4151e+12
    27.623 7.4167e+12
    27.635 7.4184e+12
    27.648   7.42e+12
     27.66 7.4216e+12
    27.673 7.4232e+12
    27.685 7.4248e+12
    27.697 7.4264e+12
     27.71 7.4281e+12
    27.722 7.4297e+12
    27.735 7.4313e+12
    27.747 7.4329e+12
    27.759 7.4345e+12
    27.772 7.4361e+12
    27.784 7.4377e+12
    27.797 7.4393e+12
    27.809  7.441e+12
    27.821 7.4426e+12
    27.834 7.4442e+12
    27.846 7.4458e+12
    27.859 7.4474e+12
    27.871  7.449e+12
    27.883 7.4506e+12
    27.896 7.4522e+12
    27.908 7.4538e+12
    27.921 7.4554e+12
    27.933  7.457e+12
    27.945 7.4586e+12
    27.958 7.4602e+12
     27.97 7.4618e+12
    27.983 7.4634e+12
    27.995  7.465e+12
    28.007 7.4666e+12
     28.02 7.4682e+12
    28.032 7.4698e+12
    28.045 7.4714e+12
    28.057  7.473e+12
    28.069 7.4746e+12
    28.082 7.4761e+12
    28.094 7.4778e+12
    28.107 7.4794e+12
    28.119 7.4809e+12
    28.131 7.4825e+12
    28.144 7.4841e+12
    28.156 7.4857e+12
    28.169 7.4873e+12
    28.181 7.4889e+12
    28.193 7.4904e+12
    28.206  7.492e+12
    28.218 7.4936e+12
    28.231 7.4952e+12
    28.243 7.4967e+12
    28.255 7.4984e+12
    28.268 7.4999e+12
     28.28 7.5015e+12
    28.293  7.503e+12
    28.305 7.5046e+12
    28.317 7.5062e+12
     28.33 7.5078e+12
    28.342 7.5093e+12
    28.355 7.5109e+12
    28.367 7.5125e+12
    28.379 7.5141e+12
    28.392 7.5156e+12
    28.404 7.5172e+12
    28.417 7.5187e+12
    28.429 7.5203e+12
    28.441 7.5219e+12
    28.454 7.5235e+12
    28.466  7.525e+12
    28.479 7.5265e+12
    28.491 7.5281e+12
    28.503 7.5297e+12
    28.516 7.5313e+12
    28.528 7.5328e+12
    28.541 7.5344e+12
    28.553 7.5359e+12
    28.565 7.5375e+12
    28.578  7.539e+12
     28.59 7.5406e+12
    28.602 7.5421e+12
    28.615 7.5437e+12
    28.627 7.5452e+12
     28.64 7.5468e+12
    28.652 7.5483e+12
    28.664 7.5499e+12
    28.677 7.5514e+12
    28.689  7.553e+12
    28.702 7.5545e+12
    28.714 7.5561e+12
    28.726 7.5576e+12
    28.739 7.5591e+12
    28.751 7.5607e+12
    28.764 7.5622e+12
    28.776 7.5638e+12
    28.788 7.5653e+12
    28.801 7.5668e+12
    28.813 7.5684e+12
    28.826 7.5699e+12
    28.838 7.5715e+12
     28.85  7.573e+12
    28.863 7.5745e+12
    28.875 7.5761e+12
    28.888 7.5776e+12
      28.9 7.5791e+12
    28.912 7.5807e+12
    28.925 7.5822e+12
    28.937 7.5837e+12
     28.95 7.5852e+12
    28.962 7.5868e+12
    28.974 7.5883e+12
    28.987 7.5899e+12
    28.999 7.5914e+12
    29.012 7.5929e+12
    29.024 7.5944e+12
    29.036 7.5959e+12
    29.049 7.5974e+12
    29.061  7.599e+12
    29.074 7.6005e+12
    29.086  7.602e+12
    29.098 7.6035e+12
    29.111 7.6051e+12
    29.123 7.6065e+12
    29.136 7.6081e+12
    29.148 7.6096e+12
     29.16 7.6111e+12
    29.173 7.6126e+12
    29.185 7.6141e+12
    29.198 7.6156e+12
     29.21 7.6171e+12
    29.222 7.6186e+12
    29.235 7.6202e+12
    29.247 7.6216e+12
     29.26 7.6232e+12
    29.272 7.6247e+12
    29.284 7.6262e+12
    29.297 7.6277e+12
    29.309 7.6292e+12
    29.322 7.6307e+12
    29.334 7.6322e+12
    29.346 7.6337e+12
    29.359 7.6352e+12
    29.371 7.6367e+12
    29.384 7.6382e+12
    29.396 7.6396e+12
    29.408 7.6412e+12
    29.421 7.6427e+12
    29.433 7.6442e+12
    29.446 7.6456e+12
    29.458 7.6471e+12
     29.47 7.6486e+12
    29.483 7.6501e+12
    29.495 7.6516e+12
    29.508 7.6531e+12
     29.52 7.6546e+12
    29.532 7.6561e+12
    29.545 7.6576e+12
    29.557 7.6591e+12
     29.57 7.6605e+12
    29.582  7.662e+12
    29.594 7.6635e+12
    29.607  7.665e+12
    29.619 7.6665e+12
    29.632  7.668e+12
    29.644 7.6694e+12
    29.656 7.6709e+12
    29.669 7.6724e+12
    29.681 7.6739e+12
    29.694 7.6754e+12
    29.706 7.6769e+12
    29.718 7.6783e+12
    29.731 7.6798e+12
    29.743 7.6813e+12
    29.756 7.6828e+12
    29.768 7.6842e+12
     29.78 7.6857e+12
    29.793 7.6872e+12
    29.805 7.6886e+12
    29.818 7.6901e+12
     29.83 7.6916e+12
    29.842  7.693e+12
    29.855 7.6945e+12
    29.867  7.696e+12
     29.88 7.6974e+12
    29.892 7.6989e+12
    29.904 7.7004e+12
    29.917 7.7018e+12
    29.929 7.7033e+12
    29.941 7.7047e+12
    29.954 7.7062e+12
    29.966 7.7077e+12
    29.979 7.7091e+12
    29.991 7.7106e+12
    30.003  7.712e+12
