RRKM rate, sf=0.970, S*=-14.19, E0=0.02 and Delta=-1.30
   En (eV)    k (s-1)
         0          0
  0.012398          0
  0.024796 4.2827e+11
  0.037194 7.4946e+11
  0.049593 9.3037e+11
  0.061991 1.1756e+12
  0.074389 1.2562e+12
  0.086787  1.466e+12
  0.099185 1.5618e+12
   0.11158 1.7116e+12
   0.12398  1.792e+12
   0.13638 1.9071e+12
   0.14878 1.9945e+12
   0.16118 2.0947e+12
   0.17357 2.1758e+12
   0.18597 2.2587e+12
   0.19837 2.3343e+12
   0.21077 2.4104e+12
   0.22317 2.4809e+12
   0.23556 2.5492e+12
   0.24796 2.6142e+12
   0.26036 2.6774e+12
   0.27276 2.7388e+12
   0.28516 2.7976e+12
   0.29756 2.8548e+12
   0.30995 2.9098e+12
   0.32235 2.9637e+12
   0.33475 3.0157e+12
   0.34715 3.0665e+12
   0.35955 3.1158e+12
   0.37194 3.1639e+12
   0.38434 3.2108e+12
   0.39674 3.2566e+12
   0.40914 3.3012e+12
   0.42154 3.3449e+12
   0.43393 3.3876e+12
   0.44633 3.4294e+12
   0.45873 3.4702e+12
   0.47113 3.5103e+12
   0.48353 3.5495e+12
   0.49593  3.588e+12
   0.50832 3.6257e+12
   0.52072 3.6628e+12
   0.53312 3.6991e+12
   0.54552 3.7348e+12
   0.55792 3.7699e+12
   0.57031 3.8044e+12
   0.58271 3.8383e+12
   0.59511 3.8717e+12
   0.60751 3.9044e+12
   0.61991 3.9367e+12
    0.6323 3.9685e+12
    0.6447 3.9998e+12
    0.6571 4.0306e+12
    0.6695  4.061e+12
    0.6819 4.0909e+12
    0.6943 4.1204e+12
   0.70669 4.1494e+12
   0.71909 4.1781e+12
   0.73149 4.2064e+12
   0.74389 4.2343e+12
   0.75629 4.2618e+12
   0.76868 4.2889e+12
   0.78108 4.3157e+12
   0.79348 4.3422e+12
   0.80588 4.3684e+12
   0.81828 4.3942e+12
   0.83067 4.4197e+12
   0.84307 4.4449e+12
   0.85547 4.4697e+12
   0.86787 4.4943e+12
   0.88027 4.5186e+12
   0.89267 4.5427e+12
   0.90506 4.5664e+12
   0.91746 4.5899e+12
   0.92986 4.6131e+12
   0.94226 4.6361e+12
   0.95466 4.6588e+12
   0.96705 4.6813e+12
   0.97945 4.7036e+12
   0.99185 4.7256e+12
    1.0042 4.7473e+12
    1.0166 4.7689e+12
     1.029 4.7902e+12
    1.0414 4.8113e+12
    1.0538 4.8322e+12
    1.0662  4.853e+12
    1.0786 4.8734e+12
     1.091 4.8937e+12
    1.1034 4.9138e+12
    1.1158 4.9337e+12
    1.1282 4.9535e+12
    1.1406  4.973e+12
     1.153 4.9924e+12
    1.1654 5.0115e+12
    1.1778 5.0305e+12
    1.1902 5.0494e+12
    1.2026  5.068e+12
     1.215 5.0865e+12
    1.2274 5.1049e+12
    1.2398  5.123e+12
    1.2522 5.1411e+12
    1.2646 5.1589e+12
     1.277 5.1766e+12
    1.2894 5.1942e+12
    1.3018 5.2116e+12
    1.3142 5.2289e+12
    1.3266  5.246e+12
     1.339  5.263e+12
    1.3514 5.2798e+12
    1.3638 5.2965e+12
    1.3762 5.3131e+12
    1.3886 5.3295e+12
     1.401 5.3458e+12
    1.4134  5.362e+12
    1.4258 5.3781e+12
    1.4382  5.394e+12
    1.4506 5.4098e+12
     1.463 5.4255e+12
    1.4754 5.4411e+12
    1.4878 5.4565e+12
    1.5002 5.4719e+12
    1.5126 5.4871e+12
     1.525 5.5022e+12
    1.5374 5.5172e+12
    1.5498 5.5321e+12
    1.5622 5.5469e+12
    1.5746 5.5616e+12
     1.587 5.5761e+12
    1.5994 5.5906e+12
    1.6118  5.605e+12
    1.6242 5.6192e+12
    1.6366 5.6334e+12
     1.649 5.6474e+12
    1.6613 5.6614e+12
    1.6737 5.6753e+12
    1.6861  5.689e+12
    1.6985 5.7027e+12
    1.7109 5.7163e+12
    1.7233 5.7298e+12
    1.7357 5.7432e+12
    1.7481 5.7565e+12
    1.7605 5.7698e+12
    1.7729 5.7829e+12
    1.7853  5.796e+12
    1.7977  5.809e+12
    1.8101 5.8219e+12
    1.8225 5.8347e+12
    1.8349 5.8474e+12
    1.8473   5.86e+12
    1.8597 5.8726e+12
    1.8721 5.8851e+12
    1.8845 5.8975e+12
    1.8969 5.9098e+12
    1.9093 5.9221e+12
    1.9217 5.9343e+12
    1.9341 5.9463e+12
    1.9465 5.9584e+12
    1.9589 5.9703e+12
    1.9713 5.9822e+12
    1.9837  5.994e+12
    1.9961 6.0058e+12
    2.0085 6.0174e+12
    2.0209  6.029e+12
    2.0333 6.0406e+12
    2.0457  6.052e+12
    2.0581 6.0635e+12
    2.0705 6.0748e+12
    2.0829 6.0861e+12
    2.0953 6.0972e+12
    2.1077 6.1084e+12
    2.1201 6.1195e+12
    2.1325 6.1305e+12
    2.1449 6.1415e+12
    2.1573 6.1524e+12
    2.1697 6.1632e+12
    2.1821  6.174e+12
    2.1945 6.1847e+12
    2.2069 6.1953e+12
    2.2193 6.2059e+12
    2.2317 6.2165e+12
    2.2441 6.2269e+12
    2.2565 6.2373e+12
    2.2689 6.2477e+12
    2.2813  6.258e+12
    2.2937 6.2683e+12
    2.3061 6.2785e+12
    2.3185 6.2886e+12
    2.3308 6.2987e+12
    2.3432 6.3088e+12
    2.3556 6.3188e+12
     2.368 6.3287e+12
    2.3804 6.3386e+12
    2.3928 6.3484e+12
    2.4052 6.3582e+12
    2.4176 6.3679e+12
      2.43 6.3776e+12
    2.4424 6.3872e+12
    2.4548 6.3968e+12
    2.4672 6.4064e+12
    2.4796 6.4158e+12
     2.492 6.4253e+12
    2.5044 6.4347e+12
    2.5168  6.444e+12
    2.5292 6.4533e+12
    2.5416 6.4626e+12
     2.554 6.4718e+12
    2.5664  6.481e+12
    2.5788 6.4901e+12
    2.5912 6.4992e+12
    2.6036 6.5082e+12
     2.616 6.5172e+12
    2.6284 6.5262e+12
    2.6408 6.5351e+12
    2.6532 6.5439e+12
    2.6656 6.5528e+12
     2.678 6.5615e+12
    2.6904 6.5702e+12
    2.7028  6.579e+12
    2.7152 6.5876e+12
    2.7276 6.5962e+12
      2.74 6.6048e+12
    2.7524 6.6133e+12
    2.7648 6.6218e+12
    2.7772 6.6303e+12
    2.7896 6.6387e+12
     2.802 6.6471e+12
    2.8144 6.6554e+12
    2.8268 6.6638e+12
    2.8392  6.672e+12
    2.8516 6.6803e+12
     2.864 6.6885e+12
    2.8764 6.6966e+12
    2.8888 6.7047e+12
    2.9012 6.7128e+12
    2.9136 6.7209e+12
     2.926 6.7289e+12
    2.9384 6.7369e+12
    2.9508 6.7448e+12
    2.9632 6.7528e+12
    2.9756 6.7606e+12
     2.988 6.7685e+12
    3.0003 6.7763e+12
    3.0127 6.7841e+12
    3.0251 6.7918e+12
    3.0375 6.7995e+12
    3.0499 6.8072e+12
    3.0623 6.8149e+12
    3.0747 6.8225e+12
    3.0871 6.8301e+12
    3.0995 6.8376e+12
    3.1119 6.8451e+12
    3.1243 6.8526e+12
    3.1367 6.8601e+12
    3.1491 6.8675e+12
    3.1615 6.8749e+12
    3.1739 6.8823e+12
    3.1863 6.8896e+12
    3.1987 6.8969e+12
    3.2111 6.9042e+12
    3.2235 6.9115e+12
    3.2359 6.9187e+12
    3.2483 6.9259e+12
    3.2607  6.933e+12
    3.2731 6.9402e+12
    3.2855 6.9473e+12
    3.2979 6.9544e+12
    3.3103 6.9614e+12
    3.3227 6.9684e+12
    3.3351 6.9754e+12
    3.3475 6.9824e+12
    3.3599 6.9894e+12
    3.3723 6.9963e+12
    3.3847 7.0031e+12
    3.3971   7.01e+12
    3.4095 7.0168e+12
    3.4219 7.0236e+12
    3.4343 7.0304e+12
    3.4467 7.0372e+12
    3.4591 7.0439e+12
    3.4715 7.0506e+12
    3.4839 7.0573e+12
    3.4963 7.0639e+12
    3.5087 7.0706e+12
    3.5211 7.0772e+12
    3.5335 7.0838e+12
    3.5459 7.0903e+12
    3.5583 7.0969e+12
    3.5707 7.1034e+12
    3.5831 7.1099e+12
    3.5955 7.1163e+12
    3.6079 7.1227e+12
    3.6203 7.1291e+12
    3.6327 7.1355e+12
    3.6451 7.1419e+12
    3.6574 7.1482e+12
    3.6698 7.1545e+12
    3.6822 7.1608e+12
    3.6946 7.1671e+12
     3.707 7.1734e+12
    3.7194 7.1796e+12
    3.7318 7.1858e+12
    3.7442  7.192e+12
    3.7566 7.1982e+12
     3.769 7.2043e+12
    3.7814 7.2104e+12
    3.7938 7.2165e+12
    3.8062 7.2226e+12
    3.8186 7.2286e+12
     3.831 7.2347e+12
    3.8434 7.2407e+12
    3.8558 7.2467e+12
    3.8682 7.2526e+12
    3.8806 7.2586e+12
     3.893 7.2645e+12
    3.9054 7.2704e+12
    3.9178 7.2763e+12
    3.9302 7.2822e+12
    3.9426 7.2881e+12
     3.955 7.2939e+12
    3.9674 7.2997e+12
    3.9798 7.3055e+12
    3.9922 7.3113e+12
    4.0046  7.317e+12
     4.017 7.3227e+12
    4.0294 7.3284e+12
    4.0418 7.3341e+12
    4.0542 7.3398e+12
    4.0666 7.3454e+12
     4.079 7.3511e+12
    4.0914 7.3567e+12
    4.1038 7.3623e+12
    4.1162 7.3679e+12
    4.1286 7.3735e+12
     4.141  7.379e+12
    4.1534 7.3845e+12
    4.1658 7.3901e+12
    4.1782 7.3955e+12
    4.1906  7.401e+12
     4.203 7.4065e+12
    4.2154 7.4119e+12
    4.2278 7.4173e+12
    4.2402 7.4227e+12
    4.2526 7.4281e+12
     4.265 7.4335e+12
    4.2774 7.4388e+12
    4.2898 7.4441e+12
    4.3022 7.4495e+12
    4.3146 7.4548e+12
    4.3269 7.4601e+12
    4.3393 7.4653e+12
    4.3517 7.4706e+12
    4.3641 7.4758e+12
    4.3765  7.481e+12
    4.3889 7.4863e+12
    4.4013 7.4914e+12
    4.4137 7.4966e+12
    4.4261 7.5018e+12
    4.4385 7.5069e+12
    4.4509  7.512e+12
    4.4633 7.5171e+12
    4.4757 7.5222e+12
    4.4881 7.5273e+12
    4.5005 7.5323e+12
    4.5129 7.5374e+12
    4.5253 7.5424e+12
    4.5377 7.5474e+12
    4.5501 7.5524e+12
    4.5625 7.5574e+12
    4.5749 7.5624e+12
    4.5873 7.5673e+12
    4.5997 7.5723e+12
    4.6121 7.5772e+12
    4.6245 7.5821e+12
    4.6369  7.587e+12
    4.6493 7.5919e+12
    4.6617 7.5968e+12
    4.6741 7.6016e+12
    4.6865 7.6064e+12
    4.6989 7.6113e+12
    4.7113 7.6161e+12
    4.7237 7.6209e+12
    4.7361 7.6256e+12
    4.7485 7.6304e+12
    4.7609 7.6352e+12
    4.7733 7.6399e+12
    4.7857 7.6446e+12
    4.7981 7.6494e+12
    4.8105 7.6541e+12
    4.8229 7.6588e+12
    4.8353 7.6634e+12
    4.8477 7.6681e+12
    4.8601 7.6727e+12
    4.8725 7.6773e+12
    4.8849 7.6819e+12
    4.8973 7.6866e+12
    4.9097 7.6911e+12
    4.9221 7.6957e+12
    4.9345 7.7002e+12
    4.9469 7.7048e+12
    4.9593 7.7094e+12
    4.9717 7.7139e+12
     4.984 7.7184e+12
    4.9964 7.7229e+12
    5.0088 7.7274e+12
    5.0212 7.7319e+12
    5.0336 7.7363e+12
     5.046 7.7408e+12
    5.0584 7.7452e+12
    5.0708 7.7497e+12
    5.0832 7.7541e+12
    5.0956 7.7584e+12
     5.108 7.7629e+12
    5.1204 7.7672e+12
    5.1328 7.7716e+12
    5.1452 7.7759e+12
    5.1576 7.7803e+12
      5.17 7.7847e+12
    5.1824  7.789e+12
    5.1948 7.7933e+12
    5.2072 7.7976e+12
    5.2196 7.8018e+12
     5.232 7.8061e+12
    5.2444 7.8104e+12
    5.2568 7.8146e+12
    5.2692 7.8189e+12
    5.2816 7.8231e+12
     5.294 7.8273e+12
    5.3064 7.8315e+12
    5.3188 7.8357e+12
    5.3312 7.8399e+12
    5.3436  7.844e+12
     5.356 7.8482e+12
    5.3684 7.8524e+12
    5.3808 7.8565e+12
    5.3932 7.8606e+12
    5.4056 7.8648e+12
     5.418 7.8689e+12
    5.4304 7.8729e+12
    5.4428  7.877e+12
    5.4552 7.8811e+12
    5.4676 7.8852e+12
      5.48 7.8892e+12
    5.4924 7.8933e+12
    5.5048 7.8973e+12
    5.5172 7.9013e+12
    5.5296 7.9053e+12
     5.542 7.9094e+12
    5.5544 7.9133e+12
    5.5668 7.9173e+12
    5.5792 7.9212e+12
    5.5916 7.9252e+12
     5.604 7.9292e+12
    5.6164 7.9331e+12
    5.6288  7.937e+12
    5.6412  7.941e+12
    5.6535 7.9448e+12
    5.6659 7.9488e+12
    5.6783 7.9526e+12
    5.6907 7.9565e+12
    5.7031 7.9604e+12
    5.7155 7.9643e+12
    5.7279 7.9681e+12
    5.7403 7.9719e+12
    5.7527 7.9757e+12
    5.7651 7.9796e+12
    5.7775 7.9834e+12
    5.7899 7.9872e+12
    5.8023  7.991e+12
    5.8147 7.9948e+12
    5.8271 7.9986e+12
    5.8395 8.0023e+12
    5.8519 8.0061e+12
    5.8643 8.0098e+12
    5.8767 8.0135e+12
    5.8891 8.0173e+12
    5.9015  8.021e+12
    5.9139 8.0247e+12
    5.9263 8.0284e+12
    5.9387 8.0321e+12
    5.9511 8.0358e+12
    5.9635 8.0394e+12
    5.9759 8.0431e+12
    5.9883 8.0467e+12
    6.0007 8.0504e+12
    6.0131  8.054e+12
    6.0255 8.0577e+12
    6.0379 8.0613e+12
    6.0503 8.0649e+12
    6.0627 8.0686e+12
    6.0751 8.0721e+12
    6.0875 8.0757e+12
    6.0999 8.0793e+12
    6.1123 8.0828e+12
    6.1247 8.0864e+12
    6.1371 8.0899e+12
    6.1495 8.0935e+12
    6.1619  8.097e+12
    6.1743 8.1005e+12
    6.1867 8.1041e+12
    6.1991 8.1076e+12
    6.2115 8.1111e+12
    6.2239 8.1146e+12
    6.2363 8.1181e+12
    6.2487 8.1215e+12
    6.2611  8.125e+12
    6.2735 8.1284e+12
    6.2859 8.1319e+12
    6.2983 8.1353e+12
    6.3107 8.1388e+12
     6.323 8.1422e+12
    6.3354 8.1456e+12
    6.3478 8.1491e+12
    6.3602 8.1524e+12
    6.3726 8.1558e+12
     6.385 8.1592e+12
    6.3974 8.1626e+12
    6.4098  8.166e+12
    6.4222 8.1693e+12
    6.4346 8.1727e+12
     6.447 8.1761e+12
    6.4594 8.1794e+12
    6.4718 8.1827e+12
    6.4842 8.1861e+12
    6.4966 8.1894e+12
     6.509 8.1927e+12
    6.5214  8.196e+12
    6.5338 8.1993e+12
    6.5462 8.2026e+12
    6.5586 8.2058e+12
     6.571 8.2091e+12
    6.5834 8.2124e+12
    6.5958 8.2156e+12
    6.6082 8.2189e+12
    6.6206 8.2221e+12
     6.633 8.2254e+12
    6.6454 8.2286e+12
    6.6578 8.2318e+12
    6.6702  8.235e+12
    6.6826 8.2383e+12
     6.695 8.2415e+12
    6.7074 8.2446e+12
    6.7198 8.2478e+12
    6.7322  8.251e+12
    6.7446 8.2542e+12
     6.757 8.2574e+12
    6.7694 8.2605e+12
    6.7818 8.2637e+12
    6.7942 8.2668e+12
    6.8066 8.2699e+12
     6.819  8.273e+12
    6.8314 8.2762e+12
    6.8438 8.2793e+12
    6.8562 8.2824e+12
    6.8686 8.2855e+12
     6.881 8.2886e+12
    6.8934 8.2917e+12
    6.9058 8.2948e+12
    6.9182 8.2979e+12
    6.9306 8.3009e+12
     6.943  8.304e+12
    6.9554 8.3071e+12
    6.9678 8.3101e+12
    6.9801 8.3131e+12
    6.9925 8.3162e+12
    7.0049 8.3192e+12
    7.0173 8.3222e+12
    7.0297 8.3253e+12
    7.0421 8.3283e+12
    7.0545 8.3313e+12
    7.0669 8.3343e+12
    7.0793 8.3372e+12
    7.0917 8.3402e+12
    7.1041 8.3432e+12
    7.1165 8.3462e+12
    7.1289 8.3492e+12
    7.1413 8.3521e+12
    7.1537  8.355e+12
    7.1661  8.358e+12
    7.1785  8.361e+12
    7.1909 8.3639e+12
    7.2033 8.3668e+12
    7.2157 8.3697e+12
    7.2281 8.3726e+12
    7.2405 8.3756e+12
    7.2529 8.3784e+12
    7.2653 8.3813e+12
    7.2777 8.3842e+12
    7.2901 8.3871e+12
    7.3025   8.39e+12
    7.3149 8.3929e+12
    7.3273 8.3957e+12
    7.3397 8.3986e+12
    7.3521 8.4015e+12
    7.3645 8.4043e+12
    7.3769 8.4071e+12
    7.3893   8.41e+12
    7.4017 8.4128e+12
    7.4141 8.4156e+12
    7.4265 8.4185e+12
    7.4389 8.4213e+12
    7.4513 8.4241e+12
    7.4637 8.4269e+12
    7.4761 8.4297e+12
    7.4885 8.4325e+12
    7.5009 8.4353e+12
    7.5133  8.438e+12
    7.5257 8.4408e+12
    7.5381 8.4435e+12
    7.5505 8.4463e+12
    7.5629 8.4491e+12
    7.5753 8.4519e+12
    7.5877 8.4546e+12
    7.6001 8.4573e+12
    7.6125 8.4601e+12
    7.6249 8.4628e+12
    7.6373 8.4655e+12
    7.6496 8.4682e+12
     7.662 8.4709e+12
    7.6744 8.4736e+12
    7.6868 8.4763e+12
    7.6992  8.479e+12
    7.7116 8.4817e+12
     7.724 8.4844e+12
    7.7364 8.4871e+12
    7.7488 8.4898e+12
    7.7612 8.4924e+12
    7.7736 8.4951e+12
     7.786 8.4977e+12
    7.7984 8.5004e+12
    7.8108 8.5031e+12
    7.8232 8.5057e+12
    7.8356 8.5083e+12
     7.848 8.5109e+12
    7.8604 8.5136e+12
    7.8728 8.5162e+12
    7.8852 8.5188e+12
    7.8976 8.5214e+12
      7.91  8.524e+12
    7.9224 8.5266e+12
    7.9348 8.5292e+12
    7.9472 8.5318e+12
    7.9596 8.5344e+12
     7.972  8.537e+12
    7.9844 8.5396e+12
    7.9968 8.5421e+12
    8.0092 8.5447e+12
    8.0216 8.5472e+12
     8.034 8.5498e+12
    8.0464 8.5523e+12
    8.0588 8.5549e+12
    8.0712 8.5574e+12
    8.0836 8.5599e+12
     8.096 8.5625e+12
    8.1084  8.565e+12
    8.1208 8.5675e+12
    8.1332 8.5701e+12
    8.1456 8.5726e+12
     8.158 8.5751e+12
    8.1704 8.5775e+12
    8.1828 8.5801e+12
    8.1952 8.5826e+12
    8.2076  8.585e+12
      8.22 8.5875e+12
    8.2324   8.59e+12
    8.2448 8.5924e+12
    8.2572 8.5949e+12
    8.2696 8.5974e+12
     8.282 8.5998e+12
    8.2944 8.6023e+12
    8.3067 8.6048e+12
    8.3191 8.6072e+12
    8.3315 8.6096e+12
    8.3439  8.612e+12
    8.3563 8.6145e+12
    8.3687 8.6169e+12
    8.3811 8.6194e+12
    8.3935 8.6218e+12
    8.4059 8.6241e+12
    8.4183 8.6266e+12
    8.4307  8.629e+12
    8.4431 8.6313e+12
    8.4555 8.6337e+12
    8.4679 8.6361e+12
    8.4803 8.6385e+12
    8.4927 8.6409e+12
    8.5051 8.6433e+12
    8.5175 8.6456e+12
    8.5299  8.648e+12
    8.5423 8.6504e+12
    8.5547 8.6527e+12
    8.5671  8.655e+12
    8.5795 8.6574e+12
    8.5919 8.6598e+12
    8.6043 8.6621e+12
    8.6167 8.6644e+12
    8.6291 8.6667e+12
    8.6415 8.6691e+12
    8.6539 8.6714e+12
    8.6663 8.6737e+12
    8.6787  8.676e+12
    8.6911 8.6783e+12
    8.7035 8.6807e+12
    8.7159 8.6829e+12
    8.7283 8.6852e+12
    8.7407 8.6875e+12
    8.7531 8.6898e+12
    8.7655 8.6921e+12
    8.7779 8.6944e+12
    8.7903 8.6967e+12
    8.8027 8.6989e+12
    8.8151 8.7012e+12
    8.8275 8.7035e+12
    8.8399 8.7057e+12
    8.8523 8.7079e+12
    8.8647 8.7102e+12
    8.8771 8.7125e+12
    8.8895 8.7147e+12
    8.9019 8.7169e+12
    8.9143 8.7192e+12
    8.9267 8.7214e+12
    8.9391 8.7236e+12
    8.9515 8.7258e+12
    8.9639 8.7281e+12
    8.9762 8.7303e+12
    8.9886 8.7325e+12
     9.001 8.7347e+12
    9.0134 8.7369e+12
    9.0258 8.7391e+12
    9.0382 8.7413e+12
    9.0506 8.7435e+12
     9.063 8.7457e+12
    9.0754 8.7478e+12
    9.0878   8.75e+12
    9.1002 8.7522e+12
    9.1126 8.7544e+12
     9.125 8.7565e+12
    9.1374 8.7587e+12
    9.1498 8.7609e+12
    9.1622  8.763e+12
    9.1746 8.7651e+12
     9.187 8.7673e+12
    9.1994 8.7695e+12
    9.2118 8.7716e+12
    9.2242 8.7737e+12
    9.2366 8.7758e+12
     9.249  8.778e+12
    9.2614 8.7801e+12
    9.2738 8.7822e+12
    9.2862 8.7843e+12
    9.2986 8.7865e+12
     9.311 8.7885e+12
    9.3234 8.7907e+12
    9.3358 8.7928e+12
    9.3482 8.7948e+12
    9.3606 8.7969e+12
     9.373  8.799e+12
    9.3854 8.8011e+12
    9.3978 8.8032e+12
    9.4102 8.8053e+12
    9.4226 8.8074e+12
     9.435 8.8094e+12
    9.4474 8.8115e+12
    9.4598 8.8136e+12
    9.4722 8.8156e+12
    9.4846 8.8177e+12
     9.497 8.8197e+12
    9.5094 8.8218e+12
    9.5218 8.8238e+12
    9.5342 8.8259e+12
    9.5466 8.8279e+12
     9.559 8.8299e+12
    9.5714  8.832e+12
    9.5838  8.834e+12
    9.5962  8.836e+12
    9.6086  8.838e+12
     9.621   8.84e+12
    9.6333 8.8421e+12
    9.6457 8.8441e+12
    9.6581 8.8461e+12
    9.6705 8.8481e+12
    9.6829 8.8501e+12
    9.6953 8.8521e+12
    9.7077  8.854e+12
    9.7201 8.8561e+12
    9.7325  8.858e+12
    9.7449 8.8601e+12
    9.7573  8.862e+12
    9.7697  8.864e+12
    9.7821  8.866e+12
    9.7945 8.8679e+12
    9.8069 8.8699e+12
    9.8193 8.8719e+12
    9.8317 8.8738e+12
    9.8441 8.8758e+12
    9.8565 8.8777e+12
    9.8689 8.8797e+12
    9.8813 8.8816e+12
    9.8937 8.8836e+12
    9.9061 8.8855e+12
    9.9185 8.8875e+12
    9.9309 8.8894e+12
    9.9433 8.8913e+12
    9.9557 8.8932e+12
    9.9681 8.8952e+12
    9.9805 8.8971e+12
    9.9929  8.899e+12
    10.005 8.9009e+12
    10.018 8.9028e+12
     10.03 8.9047e+12
    10.042 8.9067e+12
    10.055 8.9085e+12
    10.067 8.9104e+12
     10.08 8.9123e+12
    10.092 8.9142e+12
    10.104 8.9161e+12
    10.117  8.918e+12
    10.129 8.9199e+12
    10.142 8.9218e+12
    10.154 8.9236e+12
    10.166 8.9255e+12
    10.179 8.9274e+12
    10.191 8.9292e+12
    10.204 8.9311e+12
    10.216 8.9329e+12
    10.228 8.9349e+12
    10.241 8.9367e+12
    10.253 8.9386e+12
    10.266 8.9404e+12
    10.278 8.9422e+12
     10.29 8.9441e+12
    10.303 8.9459e+12
    10.315 8.9477e+12
    10.328 8.9495e+12
     10.34 8.9514e+12
    10.352 8.9532e+12
    10.365 8.9551e+12
    10.377 8.9569e+12
     10.39 8.9587e+12
    10.402 8.9605e+12
    10.414 8.9623e+12
    10.427 8.9641e+12
    10.439 8.9659e+12
    10.452 8.9677e+12
    10.464 8.9695e+12
    10.476 8.9714e+12
    10.489 8.9732e+12
    10.501 8.9749e+12
    10.514 8.9767e+12
    10.526 8.9785e+12
    10.538 8.9803e+12
    10.551  8.982e+12
    10.563 8.9838e+12
    10.576 8.9856e+12
    10.588 8.9874e+12
      10.6 8.9891e+12
    10.613 8.9909e+12
    10.625 8.9926e+12
    10.638 8.9944e+12
     10.65 8.9962e+12
    10.662 8.9979e+12
    10.675 8.9997e+12
    10.687 9.0014e+12
      10.7 9.0032e+12
    10.712 9.0049e+12
    10.724 9.0067e+12
    10.737 9.0084e+12
    10.749 9.0101e+12
    10.762 9.0119e+12
    10.774 9.0136e+12
    10.786 9.0153e+12
    10.799  9.017e+12
    10.811 9.0188e+12
    10.824 9.0205e+12
    10.836 9.0222e+12
    10.848 9.0239e+12
    10.861 9.0256e+12
    10.873 9.0273e+12
    10.886  9.029e+12
    10.898 9.0307e+12
     10.91 9.0324e+12
    10.923 9.0341e+12
    10.935 9.0358e+12
    10.948 9.0375e+12
     10.96 9.0392e+12
    10.972 9.0408e+12
    10.985 9.0425e+12
    10.997 9.0442e+12
     11.01 9.0459e+12
    11.022 9.0476e+12
    11.034 9.0492e+12
    11.047 9.0509e+12
    11.059 9.0526e+12
    11.072 9.0542e+12
    11.084 9.0559e+12
    11.096 9.0576e+12
    11.109 9.0592e+12
    11.121 9.0609e+12
    11.134 9.0625e+12
    11.146 9.0642e+12
    11.158 9.0658e+12
    11.171 9.0675e+12
    11.183 9.0691e+12
    11.196 9.0707e+12
    11.208 9.0724e+12
     11.22  9.074e+12
    11.233 9.0756e+12
    11.245 9.0772e+12
    11.258 9.0789e+12
     11.27 9.0805e+12
    11.282 9.0822e+12
    11.295 9.0837e+12
    11.307 9.0854e+12
    11.319  9.087e+12
    11.332 9.0886e+12
    11.344 9.0902e+12
    11.357 9.0918e+12
    11.369 9.0934e+12
    11.381  9.095e+12
    11.394 9.0966e+12
    11.406 9.0982e+12
    11.419 9.0998e+12
    11.431 9.1014e+12
    11.443  9.103e+12
    11.456 9.1045e+12
    11.468 9.1061e+12
    11.481 9.1077e+12
    11.493 9.1093e+12
    11.505 9.1108e+12
    11.518 9.1124e+12
     11.53  9.114e+12
    11.543 9.1156e+12
    11.555 9.1171e+12
    11.567 9.1187e+12
     11.58 9.1203e+12
    11.592 9.1218e+12
    11.605 9.1234e+12
    11.617 9.1249e+12
    11.629 9.1265e+12
    11.642  9.128e+12
    11.654 9.1296e+12
    11.667 9.1311e+12
    11.679 9.1327e+12
    11.691 9.1342e+12
    11.704 9.1358e+12
    11.716 9.1373e+12
    11.729 9.1388e+12
    11.741 9.1403e+12
    11.753 9.1419e+12
    11.766 9.1434e+12
    11.778 9.1449e+12
    11.791 9.1464e+12
    11.803  9.148e+12
    11.815 9.1495e+12
    11.828  9.151e+12
     11.84 9.1526e+12
    11.853  9.154e+12
    11.865 9.1556e+12
    11.877  9.157e+12
     11.89 9.1586e+12
    11.902 9.1601e+12
    11.915 9.1616e+12
    11.927  9.163e+12
    11.939 9.1645e+12
    11.952  9.166e+12
    11.964 9.1675e+12
    11.977  9.169e+12
    11.989 9.1705e+12
    12.001  9.172e+12
    12.014 9.1734e+12
    12.026  9.175e+12
    12.039 9.1764e+12
    12.051 9.1779e+12
    12.063 9.1793e+12
    12.076 9.1808e+12
    12.088 9.1823e+12
    12.101 9.1837e+12
    12.113 9.1852e+12
    12.125 9.1867e+12
    12.138 9.1881e+12
     12.15 9.1896e+12
    12.163  9.191e+12
    12.175 9.1925e+12
    12.187  9.194e+12
      12.2 9.1954e+12
    12.212 9.1969e+12
    12.225 9.1983e+12
    12.237 9.1997e+12
    12.249 9.2012e+12
    12.262 9.2026e+12
    12.274 9.2041e+12
    12.287 9.2055e+12
    12.299 9.2069e+12
    12.311 9.2084e+12
    12.324 9.2098e+12
    12.336 9.2112e+12
    12.349 9.2126e+12
    12.361  9.214e+12
    12.373 9.2155e+12
    12.386 9.2169e+12
    12.398 9.2183e+12
    12.411 9.2197e+12
    12.423 9.2211e+12
    12.435 9.2225e+12
    12.448 9.2239e+12
     12.46 9.2253e+12
    12.473 9.2268e+12
    12.485 9.2281e+12
    12.497 9.2296e+12
     12.51 9.2309e+12
    12.522 9.2323e+12
    12.535 9.2337e+12
    12.547 9.2351e+12
    12.559 9.2365e+12
    12.572 9.2379e+12
    12.584 9.2393e+12
    12.597 9.2406e+12
    12.609 9.2421e+12
    12.621 9.2434e+12
    12.634 9.2448e+12
    12.646 9.2462e+12
    12.658 9.2475e+12
    12.671 9.2489e+12
    12.683 9.2503e+12
    12.696 9.2516e+12
    12.708  9.253e+12
     12.72 9.2544e+12
    12.733 9.2557e+12
    12.745 9.2571e+12
    12.758 9.2585e+12
     12.77 9.2598e+12
    12.782 9.2612e+12
    12.795 9.2625e+12
    12.807 9.2639e+12
     12.82 9.2652e+12
    12.832 9.2666e+12
    12.844 9.2679e+12
    12.857 9.2692e+12
    12.869 9.2706e+12
    12.882 9.2719e+12
    12.894 9.2733e+12
    12.906 9.2746e+12
    12.919  9.276e+12
    12.931 9.2773e+12
    12.944 9.2786e+12
    12.956 9.2799e+12
    12.968 9.2812e+12
    12.981 9.2826e+12
    12.993 9.2839e+12
    13.006 9.2852e+12
    13.018 9.2865e+12
     13.03 9.2879e+12
    13.043 9.2892e+12
    13.055 9.2905e+12
    13.068 9.2918e+12
     13.08 9.2931e+12
    13.092 9.2944e+12
    13.105 9.2957e+12
    13.117  9.297e+12
     13.13 9.2983e+12
    13.142 9.2996e+12
    13.154 9.3009e+12
    13.167 9.3022e+12
    13.179 9.3035e+12
    13.192 9.3048e+12
    13.204 9.3061e+12
    13.216 9.3073e+12
    13.229 9.3087e+12
    13.241 9.3099e+12
    13.254 9.3112e+12
    13.266 9.3125e+12
    13.278 9.3138e+12
    13.291 9.3151e+12
    13.303 9.3163e+12
    13.316 9.3176e+12
    13.328 9.3189e+12
     13.34 9.3201e+12
    13.353 9.3214e+12
    13.365 9.3227e+12
    13.378  9.324e+12
     13.39 9.3252e+12
    13.402 9.3265e+12
    13.415 9.3278e+12
    13.427  9.329e+12
     13.44 9.3303e+12
    13.452 9.3315e+12
    13.464 9.3327e+12
    13.477  9.334e+12
    13.489 9.3353e+12
    13.502 9.3365e+12
    13.514 9.3378e+12
    13.526  9.339e+12
    13.539 9.3403e+12
    13.551 9.3415e+12
    13.564 9.3427e+12
    13.576  9.344e+12
    13.588 9.3452e+12
    13.601 9.3464e+12
    13.613 9.3477e+12
    13.626 9.3489e+12
    13.638 9.3501e+12
     13.65 9.3514e+12
    13.663 9.3526e+12
    13.675 9.3538e+12
    13.688  9.355e+12
      13.7 9.3563e+12
    13.712 9.3575e+12
    13.725 9.3587e+12
    13.737 9.3599e+12
     13.75 9.3611e+12
    13.762 9.3623e+12
    13.774 9.3636e+12
    13.787 9.3648e+12
    13.799  9.366e+12
    13.812 9.3672e+12
    13.824 9.3684e+12
    13.836 9.3696e+12
    13.849 9.3708e+12
    13.861  9.372e+12
    13.874 9.3732e+12
    13.886 9.3744e+12
    13.898 9.3756e+12
    13.911 9.3768e+12
    13.923 9.3779e+12
    13.936 9.3792e+12
    13.948 9.3804e+12
     13.96 9.3815e+12
    13.973 9.3827e+12
    13.985 9.3839e+12
    13.997 9.3851e+12
     14.01 9.3863e+12
    14.022 9.3875e+12
    14.035 9.3886e+12
    14.047 9.3898e+12
    14.059  9.391e+12
    14.072 9.3922e+12
    14.084 9.3933e+12
    14.097 9.3945e+12
    14.109 9.3957e+12
    14.121 9.3968e+12
    14.134  9.398e+12
    14.146 9.3992e+12
    14.159 9.4004e+12
    14.171 9.4015e+12
    14.183 9.4027e+12
    14.196 9.4038e+12
    14.208  9.405e+12
    14.221 9.4061e+12
    14.233 9.4073e+12
    14.245 9.4084e+12
    14.258 9.4096e+12
     14.27 9.4107e+12
    14.283 9.4119e+12
    14.295  9.413e+12
    14.307 9.4142e+12
     14.32 9.4153e+12
    14.332 9.4165e+12
    14.345 9.4176e+12
    14.357 9.4187e+12
    14.369 9.4199e+12
    14.382  9.421e+12
    14.394 9.4221e+12
    14.407 9.4233e+12
    14.419 9.4244e+12
    14.431 9.4255e+12
    14.444 9.4267e+12
    14.456 9.4278e+12
    14.469 9.4289e+12
    14.481   9.43e+12
    14.493 9.4312e+12
    14.506 9.4323e+12
    14.518 9.4334e+12
    14.531 9.4345e+12
    14.543 9.4356e+12
    14.555 9.4368e+12
    14.568 9.4378e+12
     14.58  9.439e+12
    14.593 9.4401e+12
    14.605 9.4412e+12
    14.617 9.4423e+12
     14.63 9.4434e+12
    14.642 9.4445e+12
    14.655 9.4456e+12
    14.667 9.4467e+12
    14.679 9.4478e+12
    14.692 9.4489e+12
    14.704   9.45e+12
    14.717 9.4511e+12
    14.729 9.4522e+12
    14.741 9.4533e+12
    14.754 9.4544e+12
    14.766 9.4555e+12
    14.779 9.4566e+12
    14.791 9.4577e+12
    14.803 9.4588e+12
    14.816 9.4598e+12
    14.828 9.4609e+12
    14.841  9.462e+12
    14.853 9.4631e+12
    14.865 9.4642e+12
    14.878 9.4653e+12
     14.89 9.4663e+12
    14.903 9.4674e+12
    14.915 9.4685e+12
    14.927 9.4695e+12
     14.94 9.4706e+12
    14.952 9.4717e+12
    14.965 9.4728e+12
    14.977 9.4738e+12
    14.989 9.4749e+12
    15.002  9.476e+12
    15.014  9.477e+12
    15.027 9.4781e+12
    15.039 9.4791e+12
    15.051 9.4802e+12
    15.064 9.4813e+12
    15.076 9.4823e+12
    15.089 9.4833e+12
    15.101 9.4845e+12
    15.113 9.4855e+12
    15.126 9.4866e+12
    15.138 9.4876e+12
    15.151 9.4886e+12
    15.163 9.4897e+12
    15.175 9.4907e+12
    15.188 9.4917e+12
      15.2 9.4928e+12
    15.213 9.4938e+12
    15.225 9.4949e+12
    15.237 9.4959e+12
     15.25  9.497e+12
    15.262  9.498e+12
    15.275 9.4991e+12
    15.287 9.5001e+12
    15.299 9.5011e+12
    15.312 9.5022e+12
    15.324 9.5032e+12
    15.336 9.5042e+12
    15.349 9.5053e+12
    15.361 9.5063e+12
    15.374 9.5073e+12
    15.386 9.5083e+12
    15.398 9.5093e+12
    15.411 9.5104e+12
    15.423 9.5114e+12
    15.436 9.5124e+12
    15.448 9.5135e+12
     15.46 9.5145e+12
    15.473 9.5155e+12
    15.485 9.5165e+12
    15.498 9.5175e+12
     15.51 9.5185e+12
    15.522 9.5195e+12
    15.535 9.5205e+12
    15.547 9.5216e+12
     15.56 9.5225e+12
    15.572 9.5235e+12
    15.584 9.5246e+12
    15.597 9.5256e+12
    15.609 9.5266e+12
    15.622 9.5275e+12
    15.634 9.5286e+12
    15.646 9.5296e+12
    15.659 9.5305e+12
    15.671 9.5315e+12
    15.684 9.5326e+12
    15.696 9.5335e+12
    15.708 9.5345e+12
    15.721 9.5355e+12
    15.733 9.5365e+12
    15.746 9.5375e+12
    15.758 9.5385e+12
     15.77 9.5395e+12
    15.783 9.5404e+12
    15.795 9.5414e+12
    15.808 9.5424e+12
     15.82 9.5434e+12
    15.832 9.5444e+12
    15.845 9.5454e+12
    15.857 9.5463e+12
     15.87 9.5473e+12
    15.882 9.5483e+12
    15.894 9.5493e+12
    15.907 9.5503e+12
    15.919 9.5512e+12
    15.932 9.5522e+12
    15.944 9.5531e+12
    15.956 9.5541e+12
    15.969 9.5551e+12
    15.981 9.5561e+12
    15.994  9.557e+12
    16.006  9.558e+12
    16.018  9.559e+12
    16.031 9.5599e+12
    16.043 9.5609e+12
    16.056 9.5618e+12
    16.068 9.5628e+12
     16.08 9.5637e+12
    16.093 9.5647e+12
    16.105 9.5657e+12
    16.118 9.5667e+12
     16.13 9.5676e+12
    16.142 9.5685e+12
    16.155 9.5695e+12
    16.167 9.5704e+12
     16.18 9.5714e+12
    16.192 9.5723e+12
    16.204 9.5733e+12
    16.217 9.5742e+12
    16.229 9.5751e+12
    16.242 9.5761e+12
    16.254  9.577e+12
    16.266  9.578e+12
    16.279 9.5789e+12
    16.291 9.5799e+12
    16.304 9.5808e+12
    16.316 9.5817e+12
    16.328 9.5827e+12
    16.341 9.5836e+12
    16.353 9.5845e+12
    16.366 9.5855e+12
    16.378 9.5864e+12
     16.39 9.5873e+12
    16.403 9.5882e+12
    16.415 9.5892e+12
    16.428 9.5901e+12
     16.44  9.591e+12
    16.452 9.5919e+12
    16.465 9.5929e+12
    16.477 9.5938e+12
     16.49 9.5947e+12
    16.502 9.5956e+12
    16.514 9.5966e+12
    16.527 9.5975e+12
    16.539 9.5984e+12
    16.552 9.5993e+12
    16.564 9.6002e+12
    16.576 9.6011e+12
    16.589  9.602e+12
    16.601 9.6029e+12
    16.613 9.6039e+12
    16.626 9.6048e+12
    16.638 9.6057e+12
    16.651 9.6066e+12
    16.663 9.6075e+12
    16.675 9.6084e+12
    16.688 9.6093e+12
      16.7 9.6102e+12
    16.713 9.6111e+12
    16.725  9.612e+12
    16.737 9.6129e+12
     16.75 9.6138e+12
    16.762 9.6147e+12
    16.775 9.6156e+12
    16.787 9.6165e+12
    16.799 9.6174e+12
    16.812 9.6183e+12
    16.824 9.6192e+12
    16.837 9.6201e+12
    16.849 9.6209e+12
    16.861 9.6219e+12
    16.874 9.6227e+12
    16.886 9.6236e+12
    16.899 9.6245e+12
    16.911 9.6254e+12
    16.923 9.6263e+12
    16.936 9.6272e+12
    16.948  9.628e+12
    16.961 9.6289e+12
    16.973 9.6298e+12
    16.985 9.6307e+12
    16.998 9.6315e+12
     17.01 9.6324e+12
    17.023 9.6333e+12
    17.035 9.6342e+12
    17.047  9.635e+12
     17.06 9.6359e+12
    17.072 9.6368e+12
    17.085 9.6377e+12
    17.097 9.6385e+12
    17.109 9.6394e+12
    17.122 9.6403e+12
    17.134 9.6411e+12
    17.147  9.642e+12
    17.159 9.6429e+12
    17.171 9.6437e+12
    17.184 9.6446e+12
    17.196 9.6455e+12
    17.209 9.6464e+12
    17.221 9.6472e+12
    17.233  9.648e+12
    17.246 9.6489e+12
    17.258 9.6497e+12
    17.271 9.6506e+12
    17.283 9.6515e+12
    17.295 9.6523e+12
    17.308 9.6532e+12
     17.32  9.654e+12
    17.333 9.6549e+12
    17.345 9.6557e+12
    17.357 9.6566e+12
     17.37 9.6575e+12
    17.382 9.6583e+12
    17.395 9.6592e+12
    17.407   9.66e+12
    17.419 9.6609e+12
    17.432 9.6617e+12
    17.444 9.6625e+12
    17.457 9.6633e+12
    17.469 9.6642e+12
    17.481  9.665e+12
    17.494 9.6659e+12
    17.506 9.6667e+12
    17.519 9.6675e+12
    17.531 9.6684e+12
    17.543 9.6692e+12
    17.556   9.67e+12
    17.568 9.6709e+12
    17.581 9.6718e+12
    17.593 9.6726e+12
    17.605 9.6734e+12
    17.618 9.6742e+12
     17.63  9.675e+12
    17.643 9.6759e+12
    17.655 9.6767e+12
    17.667 9.6775e+12
     17.68 9.6784e+12
    17.692 9.6792e+12
    17.705   9.68e+12
    17.717 9.6808e+12
    17.729 9.6817e+12
    17.742 9.6824e+12
    17.754 9.6833e+12
    17.767 9.6841e+12
    17.779 9.6849e+12
    17.791 9.6857e+12
    17.804 9.6866e+12
    17.816 9.6873e+12
    17.829 9.6882e+12
    17.841  9.689e+12
    17.853 9.6898e+12
    17.866 9.6906e+12
    17.878 9.6914e+12
    17.891 9.6923e+12
    17.903 9.6931e+12
    17.915 9.6939e+12
    17.928 9.6947e+12
     17.94 9.6955e+12
    17.952 9.6963e+12
    17.965 9.6971e+12
    17.977 9.6979e+12
     17.99 9.6987e+12
    18.002 9.6995e+12
    18.014 9.7003e+12
    18.027 9.7011e+12
    18.039 9.7019e+12
    18.052 9.7027e+12
    18.064 9.7035e+12
    18.076 9.7043e+12
    18.089 9.7051e+12
    18.101 9.7059e+12
    18.114 9.7067e+12
    18.126 9.7075e+12
    18.138 9.7082e+12
    18.151 9.7091e+12
    18.163 9.7098e+12
    18.176 9.7106e+12
    18.188 9.7114e+12
      18.2 9.7122e+12
    18.213  9.713e+12
    18.225 9.7138e+12
    18.238 9.7146e+12
     18.25 9.7153e+12
    18.262 9.7162e+12
    18.275 9.7169e+12
    18.287 9.7177e+12
      18.3 9.7185e+12
    18.312 9.7193e+12
    18.324 9.7201e+12
    18.337 9.7208e+12
    18.349 9.7216e+12
    18.362 9.7224e+12
    18.374 9.7232e+12
    18.386  9.724e+12
    18.399 9.7247e+12
    18.411 9.7255e+12
    18.424 9.7262e+12
    18.436  9.727e+12
    18.448 9.7278e+12
    18.461 9.7286e+12
    18.473 9.7294e+12
    18.486 9.7301e+12
    18.498 9.7309e+12
     18.51 9.7317e+12
    18.523 9.7324e+12
    18.535 9.7332e+12
    18.548  9.734e+12
     18.56 9.7347e+12
    18.572 9.7355e+12
    18.585 9.7362e+12
    18.597  9.737e+12
     18.61 9.7378e+12
    18.622 9.7385e+12
    18.634 9.7393e+12
    18.647   9.74e+12
    18.659 9.7408e+12
    18.672 9.7416e+12
    18.684 9.7423e+12
    18.696 9.7431e+12
    18.709 9.7438e+12
    18.721 9.7446e+12
    18.734 9.7454e+12
    18.746 9.7461e+12
    18.758 9.7468e+12
    18.771 9.7476e+12
    18.783 9.7484e+12
    18.796  9.749e+12
    18.808 9.7499e+12
     18.82 9.7506e+12
    18.833 9.7513e+12
    18.845 9.7521e+12
    18.858 9.7528e+12
     18.87 9.7536e+12
    18.882 9.7543e+12
    18.895 9.7551e+12
    18.907 9.7558e+12
     18.92 9.7566e+12
    18.932 9.7573e+12
    18.944  9.758e+12
    18.957 9.7588e+12
    18.969 9.7595e+12
    18.982 9.7603e+12
    18.994  9.761e+12
    19.006 9.7617e+12
    19.019 9.7624e+12
    19.031 9.7632e+12
    19.044 9.7639e+12
    19.056 9.7646e+12
    19.068 9.7654e+12
    19.081 9.7661e+12
    19.093 9.7668e+12
    19.106 9.7676e+12
    19.118 9.7683e+12
     19.13  9.769e+12
    19.143 9.7698e+12
    19.155 9.7705e+12
    19.168 9.7712e+12
     19.18 9.7719e+12
    19.192 9.7726e+12
    19.205 9.7734e+12
    19.217 9.7741e+12
     19.23 9.7748e+12
    19.242 9.7756e+12
    19.254 9.7763e+12
    19.267  9.777e+12
    19.279 9.7777e+12
    19.291 9.7784e+12
    19.304 9.7792e+12
    19.316 9.7799e+12
    19.329 9.7806e+12
    19.341 9.7813e+12
    19.353  9.782e+12
    19.366 9.7827e+12
    19.378 9.7834e+12
    19.391 9.7842e+12
    19.403 9.7849e+12
    19.415 9.7856e+12
    19.428 9.7863e+12
     19.44  9.787e+12
    19.453 9.7877e+12
    19.465 9.7884e+12
    19.477 9.7891e+12
     19.49 9.7898e+12
    19.502 9.7906e+12
    19.515 9.7913e+12
    19.527 9.7919e+12
    19.539 9.7927e+12
    19.552 9.7933e+12
    19.564  9.794e+12
    19.577 9.7947e+12
    19.589 9.7955e+12
    19.601 9.7962e+12
    19.614 9.7969e+12
    19.626 9.7975e+12
    19.639 9.7983e+12
    19.651 9.7989e+12
    19.663 9.7997e+12
    19.676 9.8004e+12
    19.688 9.8011e+12
    19.701 9.8018e+12
    19.713 9.8024e+12
    19.725 9.8031e+12
    19.738 9.8038e+12
     19.75 9.8045e+12
    19.763 9.8052e+12
    19.775 9.8059e+12
    19.787 9.8066e+12
      19.8 9.8073e+12
    19.812 9.8079e+12
    19.825 9.8087e+12
    19.837 9.8093e+12
    19.849   9.81e+12
    19.862 9.8107e+12
    19.874 9.8114e+12
    19.887 9.8121e+12
    19.899 9.8128e+12
    19.911 9.8134e+12
    19.924 9.8141e+12
    19.936 9.8148e+12
    19.949 9.8155e+12
    19.961 9.8162e+12
    19.973 9.8169e+12
    19.986 9.8176e+12
    19.998 9.8182e+12
    20.011 9.8189e+12
    20.023 9.8196e+12
    20.035 9.8203e+12
    20.048 9.8209e+12
     20.06 9.8216e+12
    20.073 9.8223e+12
    20.085 9.8229e+12
    20.097 9.8236e+12
     20.11 9.8243e+12
    20.122  9.825e+12
    20.135 9.8256e+12
    20.147 9.8263e+12
    20.159  9.827e+12
    20.172 9.8276e+12
    20.184 9.8283e+12
    20.197  9.829e+12
    20.209 9.8297e+12
    20.221 9.8303e+12
    20.234  9.831e+12
    20.246 9.8316e+12
    20.259 9.8323e+12
    20.271  9.833e+12
    20.283 9.8336e+12
    20.296 9.8343e+12
    20.308  9.835e+12
    20.321 9.8356e+12
    20.333 9.8363e+12
    20.345 9.8369e+12
    20.358 9.8376e+12
     20.37 9.8383e+12
    20.383 9.8389e+12
    20.395 9.8396e+12
    20.407 9.8402e+12
     20.42 9.8409e+12
    20.432 9.8416e+12
    20.445 9.8422e+12
    20.457 9.8428e+12
    20.469 9.8435e+12
    20.482 9.8441e+12
    20.494 9.8448e+12
    20.507 9.8455e+12
    20.519 9.8461e+12
    20.531 9.8468e+12
    20.544 9.8474e+12
    20.556 9.8481e+12
    20.569 9.8487e+12
    20.581 9.8494e+12
    20.593   9.85e+12
    20.606 9.8507e+12
    20.618 9.8513e+12
     20.63  9.852e+12
    20.643 9.8526e+12
    20.655 9.8532e+12
    20.668 9.8539e+12
     20.68 9.8545e+12
    20.692 9.8552e+12
    20.705 9.8558e+12
    20.717 9.8565e+12
     20.73 9.8571e+12
    20.742 9.8577e+12
    20.754 9.8584e+12
    20.767  9.859e+12
    20.779 9.8597e+12
    20.792 9.8603e+12
    20.804 9.8609e+12
    20.816 9.8615e+12
    20.829 9.8622e+12
    20.841 9.8629e+12
    20.854 9.8635e+12
    20.866 9.8641e+12
    20.878 9.8647e+12
    20.891 9.8654e+12
    20.903  9.866e+12
    20.916 9.8667e+12
    20.928 9.8672e+12
     20.94 9.8679e+12
    20.953 9.8685e+12
    20.965 9.8691e+12
    20.978 9.8698e+12
     20.99 9.8704e+12
    21.002  9.871e+12
    21.015 9.8717e+12
    21.027 9.8723e+12
     21.04 9.8729e+12
    21.052 9.8735e+12
    21.064 9.8742e+12
    21.077 9.8748e+12
    21.089 9.8754e+12
    21.102  9.876e+12
    21.114 9.8766e+12
    21.126 9.8773e+12
    21.139 9.8779e+12
    21.151 9.8785e+12
    21.164 9.8791e+12
    21.176 9.8797e+12
    21.188 9.8804e+12
    21.201  9.881e+12
    21.213 9.8816e+12
    21.226 9.8822e+12
    21.238 9.8828e+12
     21.25 9.8834e+12
    21.263  9.884e+12
    21.275 9.8847e+12
    21.288 9.8853e+12
      21.3 9.8859e+12
    21.312 9.8865e+12
    21.325 9.8871e+12
    21.337 9.8878e+12
     21.35 9.8884e+12
    21.362 9.8889e+12
    21.374 9.8896e+12
    21.387 9.8902e+12
    21.399 9.8908e+12
    21.412 9.8914e+12
    21.424  9.892e+12
    21.436 9.8926e+12
    21.449 9.8932e+12
    21.461 9.8938e+12
    21.474 9.8944e+12
    21.486 9.8951e+12
    21.498 9.8956e+12
    21.511 9.8962e+12
    21.523 9.8968e+12
    21.536 9.8974e+12
    21.548 9.8981e+12
     21.56 9.8987e+12
    21.573 9.8992e+12
    21.585 9.8998e+12
    21.598 9.9005e+12
     21.61  9.901e+12
    21.622 9.9017e+12
    21.635 9.9022e+12
    21.647 9.9028e+12
     21.66 9.9034e+12
    21.672  9.904e+12
    21.684 9.9046e+12
    21.697 9.9052e+12
    21.709 9.9059e+12
    21.722 9.9064e+12
    21.734  9.907e+12
    21.746 9.9076e+12
    21.759 9.9082e+12
    21.771 9.9088e+12
    21.784 9.9094e+12
    21.796 9.9099e+12
    21.808 9.9105e+12
    21.821 9.9111e+12
    21.833 9.9118e+12
    21.846 9.9123e+12
    21.858 9.9129e+12
     21.87 9.9135e+12
    21.883 9.9141e+12
    21.895 9.9147e+12
    21.908 9.9153e+12
     21.92 9.9159e+12
    21.932 9.9164e+12
    21.945  9.917e+12
    21.957 9.9176e+12
    21.969 9.9182e+12
    21.982 9.9188e+12
    21.994 9.9193e+12
    22.007 9.9199e+12
    22.019 9.9205e+12
    22.031 9.9211e+12
    22.044 9.9217e+12
    22.056 9.9222e+12
    22.069 9.9228e+12
    22.081 9.9234e+12
    22.093  9.924e+12
    22.106 9.9246e+12
    22.118 9.9251e+12
    22.131 9.9257e+12
    22.143 9.9263e+12
    22.155 9.9269e+12
    22.168 9.9274e+12
     22.18  9.928e+12
    22.193 9.9286e+12
    22.205 9.9292e+12
    22.217 9.9297e+12
     22.23 9.9303e+12
    22.242 9.9309e+12
    22.255 9.9314e+12
    22.267  9.932e+12
    22.279 9.9326e+12
    22.292 9.9332e+12
    22.304 9.9337e+12
    22.317 9.9343e+12
    22.329 9.9348e+12
    22.341 9.9355e+12
    22.354  9.936e+12
    22.366 9.9365e+12
    22.379 9.9371e+12
    22.391 9.9377e+12
    22.403 9.9383e+12
    22.416 9.9388e+12
    22.428 9.9394e+12
    22.441   9.94e+12
    22.453 9.9405e+12
    22.465 9.9411e+12
    22.478 9.9417e+12
     22.49 9.9422e+12
    22.503 9.9428e+12
    22.515 9.9433e+12
    22.527 9.9439e+12
     22.54 9.9444e+12
    22.552  9.945e+12
    22.565 9.9456e+12
    22.577 9.9461e+12
    22.589 9.9467e+12
    22.602 9.9472e+12
    22.614 9.9478e+12
    22.627 9.9483e+12
    22.639 9.9489e+12
    22.651 9.9494e+12
    22.664   9.95e+12
    22.676 9.9506e+12
    22.689 9.9511e+12
    22.701 9.9517e+12
    22.713 9.9522e+12
    22.726 9.9528e+12
    22.738 9.9533e+12
    22.751 9.9539e+12
    22.763 9.9544e+12
    22.775  9.955e+12
    22.788 9.9556e+12
      22.8 9.9561e+12
    22.813 9.9566e+12
    22.825 9.9572e+12
    22.837 9.9577e+12
     22.85 9.9583e+12
    22.862 9.9588e+12
    22.875 9.9594e+12
    22.887 9.9599e+12
    22.899 9.9604e+12
    22.912  9.961e+12
    22.924 9.9616e+12
    22.937 9.9621e+12
    22.949 9.9626e+12
    22.961 9.9632e+12
    22.974 9.9637e+12
    22.986 9.9643e+12
    22.999 9.9648e+12
    23.011 9.9654e+12
    23.023 9.9659e+12
    23.036 9.9664e+12
    23.048  9.967e+12
    23.061 9.9675e+12
    23.073  9.968e+12
    23.085 9.9686e+12
    23.098 9.9691e+12
     23.11 9.9697e+12
    23.123 9.9702e+12
    23.135 9.9707e+12
    23.147 9.9713e+12
     23.16 9.9718e+12
    23.172 9.9724e+12
    23.185 9.9729e+12
    23.197 9.9734e+12
    23.209 9.9739e+12
    23.222 9.9745e+12
    23.234  9.975e+12
    23.247 9.9755e+12
    23.259 9.9761e+12
    23.271 9.9766e+12
    23.284 9.9772e+12
    23.296 9.9777e+12
    23.308 9.9782e+12
    23.321 9.9787e+12
    23.333 9.9792e+12
    23.346 9.9798e+12
    23.358 9.9803e+12
     23.37 9.9808e+12
    23.383 9.9814e+12
    23.395 9.9819e+12
    23.408 9.9824e+12
     23.42 9.9829e+12
    23.432 9.9835e+12
    23.445  9.984e+12
    23.457 9.9845e+12
     23.47  9.985e+12
    23.482 9.9856e+12
    23.494 9.9861e+12
    23.507 9.9866e+12
    23.519 9.9871e+12
    23.532 9.9876e+12
    23.544 9.9882e+12
    23.556 9.9887e+12
    23.569 9.9892e+12
    23.581 9.9898e+12
    23.594 9.9903e+12
    23.606 9.9908e+12
    23.618 9.9912e+12
    23.631 9.9918e+12
    23.643 9.9923e+12
    23.656 9.9928e+12
    23.668 9.9933e+12
     23.68 9.9939e+12
    23.693 9.9944e+12
    23.705 9.9949e+12
    23.718 9.9955e+12
     23.73  9.996e+12
    23.742 9.9964e+12
    23.755  9.997e+12
    23.767 9.9975e+12
     23.78  9.998e+12
    23.792 9.9985e+12
    23.804  9.999e+12
    23.817 9.9995e+12
    23.829      1e+13
    23.842 1.0001e+13
    23.854 1.0001e+13
    23.866 1.0002e+13
    23.879 1.0002e+13
    23.891 1.0003e+13
    23.904 1.0003e+13
    23.916 1.0004e+13
    23.928 1.0004e+13
    23.941 1.0005e+13
    23.953 1.0005e+13
    23.966 1.0006e+13
    23.978 1.0006e+13
     23.99 1.0007e+13
    24.003 1.0007e+13
    24.015 1.0008e+13
    24.028 1.0008e+13
     24.04 1.0009e+13
    24.052 1.0009e+13
    24.065  1.001e+13
    24.077  1.001e+13
     24.09 1.0011e+13
    24.102 1.0011e+13
    24.114 1.0012e+13
    24.127 1.0012e+13
    24.139 1.0013e+13
    24.152 1.0013e+13
    24.164 1.0014e+13
    24.176 1.0014e+13
    24.189 1.0015e+13
    24.201 1.0015e+13
    24.214 1.0016e+13
    24.226 1.0016e+13
    24.238 1.0017e+13
    24.251 1.0017e+13
    24.263 1.0018e+13
    24.276 1.0018e+13
    24.288 1.0019e+13
      24.3 1.0019e+13
    24.313  1.002e+13
    24.325  1.002e+13
    24.338 1.0021e+13
     24.35 1.0021e+13
    24.362 1.0022e+13
    24.375 1.0022e+13
    24.387 1.0023e+13
      24.4 1.0023e+13
    24.412 1.0024e+13
    24.424 1.0024e+13
    24.437 1.0025e+13
    24.449 1.0025e+13
    24.462 1.0026e+13
    24.474 1.0026e+13
    24.486 1.0027e+13
    24.499 1.0027e+13
    24.511 1.0028e+13
    24.524 1.0028e+13
    24.536 1.0028e+13
    24.548 1.0029e+13
    24.561 1.0029e+13
    24.573  1.003e+13
    24.585  1.003e+13
    24.598 1.0031e+13
     24.61 1.0031e+13
    24.623 1.0032e+13
    24.635 1.0032e+13
    24.647 1.0033e+13
     24.66 1.0033e+13
    24.672 1.0034e+13
    24.685 1.0034e+13
    24.697 1.0035e+13
    24.709 1.0035e+13
    24.722 1.0036e+13
    24.734 1.0036e+13
    24.747 1.0037e+13
    24.759 1.0037e+13
    24.771 1.0038e+13
    24.784 1.0038e+13
    24.796 1.0039e+13
    24.809 1.0039e+13
    24.821  1.004e+13
    24.833  1.004e+13
    24.846 1.0041e+13
    24.858 1.0041e+13
    24.871 1.0041e+13
    24.883 1.0042e+13
    24.895 1.0042e+13
    24.908 1.0043e+13
     24.92 1.0043e+13
    24.933 1.0044e+13
    24.945 1.0044e+13
    24.957 1.0045e+13
     24.97 1.0045e+13
    24.982 1.0046e+13
    24.995 1.0046e+13
    25.007 1.0047e+13
    25.019 1.0047e+13
    25.032 1.0048e+13
    25.044 1.0048e+13
    25.057 1.0049e+13
    25.069 1.0049e+13
    25.081  1.005e+13
    25.094  1.005e+13
    25.106  1.005e+13
    25.119 1.0051e+13
    25.131 1.0051e+13
    25.143 1.0052e+13
    25.156 1.0052e+13
    25.168 1.0053e+13
    25.181 1.0053e+13
    25.193 1.0054e+13
    25.205 1.0054e+13
    25.218 1.0055e+13
     25.23 1.0055e+13
    25.243 1.0056e+13
    25.255 1.0056e+13
    25.267 1.0057e+13
     25.28 1.0057e+13
    25.292 1.0057e+13
    25.305 1.0058e+13
    25.317 1.0058e+13
    25.329 1.0059e+13
    25.342 1.0059e+13
    25.354  1.006e+13
    25.367  1.006e+13
    25.379 1.0061e+13
    25.391 1.0061e+13
    25.404 1.0062e+13
    25.416 1.0062e+13
    25.429 1.0063e+13
    25.441 1.0063e+13
    25.453 1.0063e+13
    25.466 1.0064e+13
    25.478 1.0064e+13
    25.491 1.0065e+13
    25.503 1.0065e+13
    25.515 1.0066e+13
    25.528 1.0066e+13
     25.54 1.0067e+13
    25.553 1.0067e+13
    25.565 1.0068e+13
    25.577 1.0068e+13
     25.59 1.0068e+13
    25.602 1.0069e+13
    25.615 1.0069e+13
    25.627  1.007e+13
    25.639  1.007e+13
    25.652 1.0071e+13
    25.664 1.0071e+13
    25.677 1.0072e+13
    25.689 1.0072e+13
    25.701 1.0073e+13
    25.714 1.0073e+13
    25.726 1.0073e+13
    25.739 1.0074e+13
    25.751 1.0074e+13
    25.763 1.0075e+13
    25.776 1.0075e+13
    25.788 1.0076e+13
    25.801 1.0076e+13
    25.813 1.0077e+13
    25.825 1.0077e+13
    25.838 1.0078e+13
     25.85 1.0078e+13
    25.863 1.0078e+13
    25.875 1.0079e+13
    25.887 1.0079e+13
      25.9  1.008e+13
    25.912  1.008e+13
    25.924 1.0081e+13
    25.937 1.0081e+13
    25.949 1.0082e+13
    25.962 1.0082e+13
    25.974 1.0082e+13
    25.986 1.0083e+13
    25.999 1.0083e+13
    26.011 1.0084e+13
    26.024 1.0084e+13
    26.036 1.0085e+13
    26.048 1.0085e+13
    26.061 1.0086e+13
    26.073 1.0086e+13
    26.086 1.0086e+13
    26.098 1.0087e+13
     26.11 1.0087e+13
    26.123 1.0088e+13
    26.135 1.0088e+13
    26.148 1.0089e+13
     26.16 1.0089e+13
    26.172  1.009e+13
    26.185  1.009e+13
    26.197  1.009e+13
     26.21 1.0091e+13
    26.222 1.0091e+13
    26.234 1.0092e+13
    26.247 1.0092e+13
    26.259 1.0093e+13
    26.272 1.0093e+13
    26.284 1.0093e+13
    26.296 1.0094e+13
    26.309 1.0094e+13
    26.321 1.0095e+13
    26.334 1.0095e+13
    26.346 1.0096e+13
    26.358 1.0096e+13
    26.371 1.0096e+13
    26.383 1.0097e+13
    26.396 1.0097e+13
    26.408 1.0098e+13
     26.42 1.0098e+13
    26.433 1.0099e+13
    26.445 1.0099e+13
    26.458 1.0099e+13
     26.47   1.01e+13
    26.482   1.01e+13
    26.495 1.0101e+13
    26.507 1.0101e+13
     26.52 1.0102e+13
    26.532 1.0102e+13
    26.544 1.0103e+13
    26.557 1.0103e+13
    26.569 1.0103e+13
    26.582 1.0104e+13
    26.594 1.0104e+13
    26.606 1.0105e+13
    26.619 1.0105e+13
    26.631 1.0105e+13
    26.644 1.0106e+13
    26.656 1.0106e+13
    26.668 1.0107e+13
    26.681 1.0107e+13
    26.693 1.0108e+13
    26.706 1.0108e+13
    26.718 1.0108e+13
     26.73 1.0109e+13
    26.743 1.0109e+13
    26.755  1.011e+13
    26.768  1.011e+13
     26.78 1.0111e+13
    26.792 1.0111e+13
    26.805 1.0111e+13
    26.817 1.0112e+13
     26.83 1.0112e+13
    26.842 1.0113e+13
    26.854 1.0113e+13
    26.867 1.0114e+13
    26.879 1.0114e+13
    26.892 1.0114e+13
    26.904 1.0115e+13
    26.916 1.0115e+13
    26.929 1.0116e+13
    26.941 1.0116e+13
    26.954 1.0116e+13
    26.966 1.0117e+13
    26.978 1.0117e+13
    26.991 1.0118e+13
    27.003 1.0118e+13
    27.016 1.0119e+13
    27.028 1.0119e+13
     27.04 1.0119e+13
    27.053  1.012e+13
    27.065  1.012e+13
    27.078 1.0121e+13
     27.09 1.0121e+13
    27.102 1.0121e+13
    27.115 1.0122e+13
    27.127 1.0122e+13
     27.14 1.0123e+13
    27.152 1.0123e+13
    27.164 1.0124e+13
    27.177 1.0124e+13
    27.189 1.0124e+13
    27.202 1.0125e+13
    27.214 1.0125e+13
    27.226 1.0126e+13
    27.239 1.0126e+13
    27.251 1.0126e+13
    27.263 1.0127e+13
    27.276 1.0127e+13
    27.288 1.0128e+13
    27.301 1.0128e+13
    27.313 1.0128e+13
    27.325 1.0129e+13
    27.338 1.0129e+13
     27.35  1.013e+13
    27.363  1.013e+13
    27.375  1.013e+13
    27.387 1.0131e+13
      27.4 1.0131e+13
    27.412 1.0132e+13
    27.425 1.0132e+13
    27.437 1.0133e+13
    27.449 1.0133e+13
    27.462 1.0133e+13
    27.474 1.0134e+13
    27.487 1.0134e+13
    27.499 1.0135e+13
    27.511 1.0135e+13
    27.524 1.0135e+13
    27.536 1.0136e+13
    27.549 1.0136e+13
    27.561 1.0137e+13
    27.573 1.0137e+13
    27.586 1.0137e+13
    27.598 1.0138e+13
    27.611 1.0138e+13
    27.623 1.0139e+13
    27.635 1.0139e+13
    27.648 1.0139e+13
     27.66  1.014e+13
    27.673  1.014e+13
    27.685 1.0141e+13
    27.697 1.0141e+13
     27.71 1.0141e+13
    27.722 1.0142e+13
    27.735 1.0142e+13
    27.747 1.0143e+13
    27.759 1.0143e+13
    27.772 1.0143e+13
    27.784 1.0144e+13
    27.797 1.0144e+13
    27.809 1.0145e+13
    27.821 1.0145e+13
    27.834 1.0145e+13
    27.846 1.0146e+13
    27.859 1.0146e+13
    27.871 1.0147e+13
    27.883 1.0147e+13
    27.896 1.0147e+13
    27.908 1.0148e+13
    27.921 1.0148e+13
    27.933 1.0149e+13
    27.945 1.0149e+13
    27.958 1.0149e+13
     27.97  1.015e+13
    27.983  1.015e+13
    27.995  1.015e+13
    28.007 1.0151e+13
     28.02 1.0151e+13
    28.032 1.0152e+13
    28.045 1.0152e+13
    28.057 1.0152e+13
    28.069 1.0153e+13
    28.082 1.0153e+13
    28.094 1.0154e+13
    28.107 1.0154e+13
    28.119 1.0154e+13
    28.131 1.0155e+13
    28.144 1.0155e+13
    28.156 1.0156e+13
    28.169 1.0156e+13
    28.181 1.0156e+13
    28.193 1.0157e+13
    28.206 1.0157e+13
    28.218 1.0158e+13
    28.231 1.0158e+13
    28.243 1.0158e+13
    28.255 1.0159e+13
    28.268 1.0159e+13
     28.28 1.0159e+13
    28.293  1.016e+13
    28.305  1.016e+13
    28.317 1.0161e+13
     28.33 1.0161e+13
    28.342 1.0161e+13
    28.355 1.0162e+13
    28.367 1.0162e+13
    28.379 1.0163e+13
    28.392 1.0163e+13
    28.404 1.0163e+13
    28.417 1.0164e+13
    28.429 1.0164e+13
    28.441 1.0164e+13
    28.454 1.0165e+13
    28.466 1.0165e+13
    28.479 1.0166e+13
    28.491 1.0166e+13
    28.503 1.0166e+13
    28.516 1.0167e+13
    28.528 1.0167e+13
    28.541 1.0167e+13
    28.553 1.0168e+13
    28.565 1.0168e+13
    28.578 1.0169e+13
     28.59 1.0169e+13
    28.602 1.0169e+13
    28.615  1.017e+13
    28.627  1.017e+13
     28.64 1.0171e+13
    28.652 1.0171e+13
    28.664 1.0171e+13
    28.677 1.0172e+13
    28.689 1.0172e+13
    28.702 1.0172e+13
    28.714 1.0173e+13
    28.726 1.0173e+13
    28.739 1.0174e+13
    28.751 1.0174e+13
    28.764 1.0174e+13
    28.776 1.0175e+13
    28.788 1.0175e+13
    28.801 1.0175e+13
    28.813 1.0176e+13
    28.826 1.0176e+13
    28.838 1.0177e+13
     28.85 1.0177e+13
    28.863 1.0177e+13
    28.875 1.0178e+13
    28.888 1.0178e+13
      28.9 1.0178e+13
    28.912 1.0179e+13
    28.925 1.0179e+13
    28.937  1.018e+13
     28.95  1.018e+13
    28.962  1.018e+13
    28.974 1.0181e+13
    28.987 1.0181e+13
    28.999 1.0181e+13
    29.012 1.0182e+13
    29.024 1.0182e+13
    29.036 1.0183e+13
    29.049 1.0183e+13
    29.061 1.0183e+13
    29.074 1.0184e+13
    29.086 1.0184e+13
    29.098 1.0184e+13
    29.111 1.0185e+13
    29.123 1.0185e+13
    29.136 1.0185e+13
    29.148 1.0186e+13
     29.16 1.0186e+13
    29.173 1.0187e+13
    29.185 1.0187e+13
    29.198 1.0187e+13
     29.21 1.0188e+13
    29.222 1.0188e+13
    29.235 1.0188e+13
    29.247 1.0189e+13
     29.26 1.0189e+13
    29.272 1.0189e+13
    29.284  1.019e+13
    29.297  1.019e+13
    29.309 1.0191e+13
    29.322 1.0191e+13
    29.334 1.0191e+13
    29.346 1.0192e+13
    29.359 1.0192e+13
    29.371 1.0192e+13
    29.384 1.0193e+13
    29.396 1.0193e+13
    29.408 1.0193e+13
    29.421 1.0194e+13
    29.433 1.0194e+13
    29.446 1.0195e+13
    29.458 1.0195e+13
     29.47 1.0195e+13
    29.483 1.0196e+13
    29.495 1.0196e+13
    29.508 1.0196e+13
     29.52 1.0197e+13
    29.532 1.0197e+13
    29.545 1.0197e+13
    29.557 1.0198e+13
     29.57 1.0198e+13
    29.582 1.0199e+13
    29.594 1.0199e+13
    29.607 1.0199e+13
    29.619   1.02e+13
    29.632   1.02e+13
    29.644   1.02e+13
    29.656 1.0201e+13
    29.669 1.0201e+13
    29.681 1.0201e+13
    29.694 1.0202e+13
    29.706 1.0202e+13
    29.718 1.0202e+13
    29.731 1.0203e+13
    29.743 1.0203e+13
    29.756 1.0204e+13
    29.768 1.0204e+13
     29.78 1.0204e+13
    29.793 1.0205e+13
    29.805 1.0205e+13
    29.818 1.0205e+13
     29.83 1.0206e+13
    29.842 1.0206e+13
    29.855 1.0206e+13
    29.867 1.0207e+13
     29.88 1.0207e+13
    29.892 1.0207e+13
    29.904 1.0208e+13
    29.917 1.0208e+13
    29.929 1.0209e+13
    29.941 1.0209e+13
    29.954 1.0209e+13
    29.966  1.021e+13
    29.979  1.021e+13
    29.991  1.021e+13
    30.003 1.0211e+13
