RRKM rate, sf=0.970, S*=-13.25, E0=0.30 and Delta=-0.00
   En (eV)    k (s-1)
         0          0
  0.012398          0
  0.024796          0
  0.037194          0
  0.049593          0
  0.061991          0
  0.074389          0
  0.086787          0
  0.099185          0
   0.11158          0
   0.12398          0
   0.13638          0
   0.14878          0
   0.16118          0
   0.17357          0
   0.18597          0
   0.19837          0
   0.21077          0
   0.22317          0
   0.23556          0
   0.24796          0
   0.26036          0
   0.27276          0
   0.28516          0
   0.29756          0
   0.30995 4.1753e+06
   0.32235 8.5962e+06
   0.33475 1.7794e+07
   0.34715 2.8804e+07
   0.35955 4.2078e+07
   0.37194 6.0972e+07
   0.38434 8.1118e+07
   0.39674 1.0871e+08
   0.40914 1.3875e+08
   0.42154 1.7541e+08
   0.43393 2.1791e+08
   0.44633 2.6525e+08
   0.45873 3.2113e+08
   0.47113 3.8144e+08
   0.48353 4.5092e+08
   0.49593 5.2673e+08
   0.50832 6.1085e+08
   0.52072 7.0368e+08
   0.53312 8.0406e+08
   0.54552 9.1463e+08
   0.55792 1.0332e+09
   0.57031 1.1623e+09
   0.58271 1.3007e+09
   0.59511 1.4493e+09
   0.60751 1.6086e+09
   0.61991 1.7781e+09
    0.6323 1.9591e+09
    0.6447 2.1508e+09
    0.6571 2.3543e+09
    0.6695 2.5694e+09
    0.6819 2.7964e+09
    0.6943 3.0358e+09
   0.70669 3.2873e+09
   0.71909 3.5516e+09
   0.73149 3.8286e+09
   0.74389 4.1186e+09
   0.75629 4.4218e+09
   0.76868 4.7384e+09
   0.78108 5.0686e+09
   0.79348 5.4125e+09
   0.80588 5.7703e+09
   0.81828 6.1421e+09
   0.83067 6.5281e+09
   0.84307 6.9285e+09
   0.85547 7.3433e+09
   0.86787 7.7728e+09
   0.88027  8.217e+09
   0.89267 8.6761e+09
   0.90506 9.1501e+09
   0.91746 9.6393e+09
   0.92986 1.0144e+10
   0.94226 1.0663e+10
   0.95466 1.1199e+10
   0.96705 1.1749e+10
   0.97945 1.2315e+10
   0.99185 1.2897e+10
    1.0042 1.3495e+10
    1.0166 1.4108e+10
     1.029 1.4738e+10
    1.0414 1.5383e+10
    1.0538 1.6045e+10
    1.0662 1.6722e+10
    1.0786 1.7416e+10
     1.091 1.8126e+10
    1.1034 1.8852e+10
    1.1158 1.9594e+10
    1.1282 2.0353e+10
    1.1406 2.1128e+10
     1.153 2.1919e+10
    1.1654 2.2727e+10
    1.1778 2.3552e+10
    1.1902 2.4393e+10
    1.2026  2.525e+10
     1.215 2.6124e+10
    1.2274 2.7015e+10
    1.2398 2.7922e+10
    1.2522 2.8846e+10
    1.2646 2.9786e+10
     1.277 3.0743e+10
    1.2894 3.1717e+10
    1.3018 3.2707e+10
    1.3142 3.3714e+10
    1.3266 3.4737e+10
     1.339 3.5777e+10
    1.3514 3.6834e+10
    1.3638 3.7908e+10
    1.3762 3.8997e+10
    1.3886 4.0104e+10
     1.401 4.1227e+10
    1.4134 4.2367e+10
    1.4258 4.3523e+10
    1.4382 4.4696e+10
    1.4506 4.5885e+10
     1.463 4.7091e+10
    1.4754 4.8313e+10
    1.4878 4.9551e+10
    1.5002 5.0807e+10
    1.5126 5.2078e+10
     1.525 5.3366e+10
    1.5374  5.467e+10
    1.5498 5.5991e+10
    1.5622 5.7327e+10
    1.5746  5.868e+10
     1.587 6.0049e+10
    1.5994 6.1435e+10
    1.6118 6.2836e+10
    1.6242 6.4254e+10
    1.6366 6.5688e+10
     1.649 6.7138e+10
    1.6613 6.8603e+10
    1.6737 7.0085e+10
    1.6861 7.1582e+10
    1.6985 7.3095e+10
    1.7109 7.4625e+10
    1.7233  7.617e+10
    1.7357 7.7731e+10
    1.7481 7.9307e+10
    1.7605 8.0899e+10
    1.7729 8.2506e+10
    1.7853  8.413e+10
    1.7977 8.5769e+10
    1.8101 8.7423e+10
    1.8225 8.9092e+10
    1.8349 9.0777e+10
    1.8473 9.2477e+10
    1.8597 9.4192e+10
    1.8721 9.5923e+10
    1.8845 9.7669e+10
    1.8969 9.9429e+10
    1.9093 1.0121e+11
    1.9217   1.03e+11
    1.9341  1.048e+11
    1.9465 1.0662e+11
    1.9589 1.0846e+11
    1.9713 1.1031e+11
    1.9837 1.1217e+11
    1.9961 1.1405e+11
    2.0085 1.1595e+11
    2.0209 1.1786e+11
    2.0333 1.1978e+11
    2.0457 1.2172e+11
    2.0581 1.2367e+11
    2.0705 1.2563e+11
    2.0829 1.2761e+11
    2.0953 1.2961e+11
    2.1077 1.3162e+11
    2.1201 1.3364e+11
    2.1325 1.3568e+11
    2.1449 1.3773e+11
    2.1573 1.3979e+11
    2.1697 1.4187e+11
    2.1821 1.4396e+11
    2.1945 1.4607e+11
    2.2069 1.4819e+11
    2.2193 1.5032e+11
    2.2317 1.5247e+11
    2.2441 1.5463e+11
    2.2565  1.568e+11
    2.2689 1.5899e+11
    2.2813 1.6119e+11
    2.2937 1.6341e+11
    2.3061 1.6563e+11
    2.3185 1.6787e+11
    2.3308 1.7013e+11
    2.3432 1.7239e+11
    2.3556 1.7467e+11
     2.368 1.7696e+11
    2.3804 1.7927e+11
    2.3928 1.8159e+11
    2.4052 1.8392e+11
    2.4176 1.8626e+11
      2.43 1.8861e+11
    2.4424 1.9098e+11
    2.4548 1.9336e+11
    2.4672 1.9576e+11
    2.4796 1.9816e+11
     2.492 2.0058e+11
    2.5044 2.0301e+11
    2.5168 2.0545e+11
    2.5292 2.0791e+11
    2.5416 2.1037e+11
     2.554 2.1285e+11
    2.5664 2.1534e+11
    2.5788 2.1784e+11
    2.5912 2.2036e+11
    2.6036 2.2288e+11
     2.616 2.2542e+11
    2.6284 2.2797e+11
    2.6408 2.3053e+11
    2.6532  2.331e+11
    2.6656 2.3568e+11
     2.678 2.3828e+11
    2.6904 2.4088e+11
    2.7028  2.435e+11
    2.7152 2.4613e+11
    2.7276 2.4877e+11
      2.74 2.5142e+11
    2.7524 2.5408e+11
    2.7648 2.5676e+11
    2.7772 2.5944e+11
    2.7896 2.6214e+11
     2.802 2.6484e+11
    2.8144 2.6756e+11
    2.8268 2.7028e+11
    2.8392 2.7302e+11
    2.8516 2.7577e+11
     2.864 2.7853e+11
    2.8764  2.813e+11
    2.8888 2.8408e+11
    2.9012 2.8687e+11
    2.9136 2.8967e+11
     2.926 2.9248e+11
    2.9384  2.953e+11
    2.9508 2.9813e+11
    2.9632 3.0098e+11
    2.9756 3.0383e+11
     2.988 3.0669e+11
    3.0003 3.0956e+11
    3.0127 3.1244e+11
    3.0251 3.1533e+11
    3.0375 3.1823e+11
    3.0499 3.2114e+11
    3.0623 3.2406e+11
    3.0747 3.2699e+11
    3.0871 3.2993e+11
    3.0995 3.3288e+11
    3.1119 3.3584e+11
    3.1243 3.3881e+11
    3.1367 3.4178e+11
    3.1491 3.4477e+11
    3.1615 3.4777e+11
    3.1739 3.5077e+11
    3.1863 3.5379e+11
    3.1987 3.5681e+11
    3.2111 3.5984e+11
    3.2235 3.6288e+11
    3.2359 3.6593e+11
    3.2483 3.6899e+11
    3.2607 3.7206e+11
    3.2731 3.7514e+11
    3.2855 3.7822e+11
    3.2979 3.8131e+11
    3.3103 3.8442e+11
    3.3227 3.8753e+11
    3.3351 3.9065e+11
    3.3475 3.9377e+11
    3.3599 3.9691e+11
    3.3723 4.0006e+11
    3.3847 4.0321e+11
    3.3971 4.0637e+11
    3.4095 4.0954e+11
    3.4219 4.1272e+11
    3.4343 4.1591e+11
    3.4467  4.191e+11
    3.4591  4.223e+11
    3.4715 4.2551e+11
    3.4839 4.2873e+11
    3.4963 4.3196e+11
    3.5087 4.3519e+11
    3.5211 4.3843e+11
    3.5335 4.4168e+11
    3.5459 4.4494e+11
    3.5583  4.482e+11
    3.5707 4.5148e+11
    3.5831 4.5476e+11
    3.5955 4.5804e+11
    3.6079 4.6134e+11
    3.6203 4.6464e+11
    3.6327 4.6795e+11
    3.6451 4.7127e+11
    3.6574 4.7459e+11
    3.6698 4.7792e+11
    3.6822 4.8126e+11
    3.6946 4.8461e+11
     3.707 4.8796e+11
    3.7194 4.9132e+11
    3.7318 4.9469e+11
    3.7442 4.9807e+11
    3.7566 5.0145e+11
     3.769 5.0483e+11
    3.7814 5.0823e+11
    3.7938 5.1163e+11
    3.8062 5.1504e+11
    3.8186 5.1845e+11
     3.831 5.2188e+11
    3.8434 5.2531e+11
    3.8558 5.2874e+11
    3.8682 5.3218e+11
    3.8806 5.3563e+11
     3.893 5.3909e+11
    3.9054 5.4255e+11
    3.9178 5.4602e+11
    3.9302 5.4949e+11
    3.9426 5.5297e+11
     3.955 5.5646e+11
    3.9674 5.5995e+11
    3.9798 5.6345e+11
    3.9922 5.6696e+11
    4.0046 5.7047e+11
     4.017 5.7398e+11
    4.0294 5.7751e+11
    4.0418 5.8103e+11
    4.0542 5.8457e+11
    4.0666 5.8811e+11
     4.079 5.9166e+11
    4.0914 5.9521e+11
    4.1038 5.9877e+11
    4.1162 6.0234e+11
    4.1286 6.0591e+11
     4.141 6.0948e+11
    4.1534 6.1307e+11
    4.1658 6.1665e+11
    4.1782 6.2025e+11
    4.1906 6.2384e+11
     4.203 6.2745e+11
    4.2154 6.3106e+11
    4.2278 6.3467e+11
    4.2402 6.3829e+11
    4.2526 6.4192e+11
     4.265 6.4555e+11
    4.2774 6.4918e+11
    4.2898 6.5283e+11
    4.3022 6.5647e+11
    4.3146 6.6013e+11
    4.3269 6.6378e+11
    4.3393 6.6745e+11
    4.3517 6.7111e+11
    4.3641 6.7478e+11
    4.3765 6.7846e+11
    4.3889 6.8214e+11
    4.4013 6.8583e+11
    4.4137 6.8952e+11
    4.4261 6.9322e+11
    4.4385 6.9692e+11
    4.4509 7.0063e+11
    4.4633 7.0434e+11
    4.4757 7.0805e+11
    4.4881 7.1177e+11
    4.5005  7.155e+11
    4.5129 7.1923e+11
    4.5253 7.2296e+11
    4.5377  7.267e+11
    4.5501 7.3045e+11
    4.5625 7.3419e+11
    4.5749 7.3794e+11
    4.5873  7.417e+11
    4.5997 7.4546e+11
    4.6121 7.4923e+11
    4.6245 7.5299e+11
    4.6369 7.5677e+11
    4.6493 7.6055e+11
    4.6617 7.6433e+11
    4.6741 7.6812e+11
    4.6865 7.7191e+11
    4.6989  7.757e+11
    4.7113  7.795e+11
    4.7237 7.8331e+11
    4.7361 7.8711e+11
    4.7485 7.9093e+11
    4.7609 7.9474e+11
    4.7733 7.9856e+11
    4.7857 8.0238e+11
    4.7981 8.0621e+11
    4.8105 8.1004e+11
    4.8229 8.1388e+11
    4.8353 8.1771e+11
    4.8477 8.2156e+11
    4.8601  8.254e+11
    4.8725 8.2925e+11
    4.8849 8.3311e+11
    4.8973 8.3696e+11
    4.9097 8.4082e+11
    4.9221 8.4468e+11
    4.9345 8.4855e+11
    4.9469 8.5242e+11
    4.9593  8.563e+11
    4.9717 8.6018e+11
     4.984 8.6406e+11
    4.9964 8.6795e+11
    5.0088 8.7184e+11
    5.0212 8.7573e+11
    5.0336 8.7962e+11
     5.046 8.8352e+11
    5.0584 8.8743e+11
    5.0708 8.9133e+11
    5.0832 8.9524e+11
    5.0956 8.9915e+11
     5.108 9.0306e+11
    5.1204 9.0698e+11
    5.1328 9.1091e+11
    5.1452 9.1483e+11
    5.1576 9.1876e+11
      5.17 9.2269e+11
    5.1824 9.2662e+11
    5.1948 9.3056e+11
    5.2072  9.345e+11
    5.2196 9.3844e+11
     5.232 9.4238e+11
    5.2444 9.4633e+11
    5.2568 9.5028e+11
    5.2692 9.5424e+11
    5.2816  9.582e+11
     5.294 9.6215e+11
    5.3064 9.6611e+11
    5.3188 9.7008e+11
    5.3312 9.7405e+11
    5.3436 9.7802e+11
     5.356 9.8199e+11
    5.3684 9.8597e+11
    5.3808 9.8995e+11
    5.3932 9.9392e+11
    5.4056 9.9791e+11
     5.418 1.0019e+12
    5.4304 1.0059e+12
    5.4428 1.0099e+12
    5.4552 1.0139e+12
    5.4676 1.0179e+12
      5.48 1.0219e+12
    5.4924 1.0259e+12
    5.5048 1.0299e+12
    5.5172 1.0339e+12
    5.5296 1.0379e+12
     5.542 1.0419e+12
    5.5544 1.0459e+12
    5.5668 1.0499e+12
    5.5792 1.0539e+12
    5.5916  1.058e+12
     5.604  1.062e+12
    5.6164  1.066e+12
    5.6288   1.07e+12
    5.6412 1.0741e+12
    5.6535 1.0781e+12
    5.6659 1.0821e+12
    5.6783 1.0862e+12
    5.6907 1.0902e+12
    5.7031 1.0942e+12
    5.7155 1.0983e+12
    5.7279 1.1023e+12
    5.7403 1.1064e+12
    5.7527 1.1104e+12
    5.7651 1.1144e+12
    5.7775 1.1185e+12
    5.7899 1.1225e+12
    5.8023 1.1266e+12
    5.8147 1.1307e+12
    5.8271 1.1347e+12
    5.8395 1.1388e+12
    5.8519 1.1428e+12
    5.8643 1.1469e+12
    5.8767  1.151e+12
    5.8891  1.155e+12
    5.9015 1.1591e+12
    5.9139 1.1632e+12
    5.9263 1.1672e+12
    5.9387 1.1713e+12
    5.9511 1.1754e+12
    5.9635 1.1795e+12
    5.9759 1.1835e+12
    5.9883 1.1876e+12
    6.0007 1.1917e+12
    6.0131 1.1958e+12
    6.0255 1.1999e+12
    6.0379  1.204e+12
    6.0503  1.208e+12
    6.0627 1.2121e+12
    6.0751 1.2162e+12
    6.0875 1.2203e+12
    6.0999 1.2244e+12
    6.1123 1.2285e+12
    6.1247 1.2326e+12
    6.1371 1.2367e+12
    6.1495 1.2408e+12
    6.1619 1.2449e+12
    6.1743  1.249e+12
    6.1867 1.2531e+12
    6.1991 1.2572e+12
    6.2115 1.2613e+12
    6.2239 1.2654e+12
    6.2363 1.2695e+12
    6.2487 1.2736e+12
    6.2611 1.2777e+12
    6.2735 1.2818e+12
    6.2859 1.2859e+12
    6.2983 1.2901e+12
    6.3107 1.2942e+12
     6.323 1.2983e+12
    6.3354 1.3024e+12
    6.3478 1.3065e+12
    6.3602 1.3106e+12
    6.3726 1.3148e+12
     6.385 1.3189e+12
    6.3974  1.323e+12
    6.4098 1.3271e+12
    6.4222 1.3312e+12
    6.4346 1.3354e+12
     6.447 1.3395e+12
    6.4594 1.3436e+12
    6.4718 1.3477e+12
    6.4842 1.3519e+12
    6.4966  1.356e+12
     6.509 1.3601e+12
    6.5214 1.3643e+12
    6.5338 1.3684e+12
    6.5462 1.3725e+12
    6.5586 1.3766e+12
     6.571 1.3808e+12
    6.5834 1.3849e+12
    6.5958 1.3891e+12
    6.6082 1.3932e+12
    6.6206 1.3973e+12
     6.633 1.4015e+12
    6.6454 1.4056e+12
    6.6578 1.4097e+12
    6.6702 1.4139e+12
    6.6826  1.418e+12
     6.695 1.4222e+12
    6.7074 1.4263e+12
    6.7198 1.4304e+12
    6.7322 1.4346e+12
    6.7446 1.4387e+12
     6.757 1.4429e+12
    6.7694  1.447e+12
    6.7818 1.4511e+12
    6.7942 1.4553e+12
    6.8066 1.4594e+12
     6.819 1.4636e+12
    6.8314 1.4677e+12
    6.8438 1.4719e+12
    6.8562  1.476e+12
    6.8686 1.4802e+12
     6.881 1.4843e+12
    6.8934 1.4884e+12
    6.9058 1.4926e+12
    6.9182 1.4967e+12
    6.9306 1.5009e+12
     6.943  1.505e+12
    6.9554 1.5092e+12
    6.9678 1.5133e+12
    6.9801 1.5175e+12
    6.9925 1.5216e+12
    7.0049 1.5258e+12
    7.0173 1.5299e+12
    7.0297 1.5341e+12
    7.0421 1.5382e+12
    7.0545 1.5424e+12
    7.0669 1.5465e+12
    7.0793 1.5507e+12
    7.0917 1.5549e+12
    7.1041  1.559e+12
    7.1165 1.5632e+12
    7.1289 1.5673e+12
    7.1413 1.5715e+12
    7.1537 1.5756e+12
    7.1661 1.5798e+12
    7.1785 1.5839e+12
    7.1909 1.5881e+12
    7.2033 1.5922e+12
    7.2157 1.5964e+12
    7.2281 1.6005e+12
    7.2405 1.6047e+12
    7.2529 1.6088e+12
    7.2653  1.613e+12
    7.2777 1.6171e+12
    7.2901 1.6213e+12
    7.3025 1.6254e+12
    7.3149 1.6296e+12
    7.3273 1.6337e+12
    7.3397 1.6379e+12
    7.3521  1.642e+12
    7.3645 1.6462e+12
    7.3769 1.6503e+12
    7.3893 1.6545e+12
    7.4017 1.6586e+12
    7.4141 1.6628e+12
    7.4265  1.667e+12
    7.4389 1.6711e+12
    7.4513 1.6752e+12
    7.4637 1.6794e+12
    7.4761 1.6836e+12
    7.4885 1.6877e+12
    7.5009 1.6919e+12
    7.5133  1.696e+12
    7.5257 1.7002e+12
    7.5381 1.7043e+12
    7.5505 1.7085e+12
    7.5629 1.7126e+12
    7.5753 1.7168e+12
    7.5877 1.7209e+12
    7.6001  1.725e+12
    7.6125 1.7292e+12
    7.6249 1.7333e+12
    7.6373 1.7375e+12
    7.6496 1.7416e+12
     7.662 1.7458e+12
    7.6744 1.7499e+12
    7.6868 1.7541e+12
    7.6992 1.7582e+12
    7.7116 1.7624e+12
     7.724 1.7665e+12
    7.7364 1.7707e+12
    7.7488 1.7748e+12
    7.7612 1.7789e+12
    7.7736 1.7831e+12
     7.786 1.7872e+12
    7.7984 1.7914e+12
    7.8108 1.7955e+12
    7.8232 1.7997e+12
    7.8356 1.8038e+12
     7.848 1.8079e+12
    7.8604 1.8121e+12
    7.8728 1.8162e+12
    7.8852 1.8203e+12
    7.8976 1.8245e+12
      7.91 1.8286e+12
    7.9224 1.8328e+12
    7.9348 1.8369e+12
    7.9472  1.841e+12
    7.9596 1.8452e+12
     7.972 1.8493e+12
    7.9844 1.8534e+12
    7.9968 1.8576e+12
    8.0092 1.8617e+12
    8.0216 1.8658e+12
     8.034   1.87e+12
    8.0464 1.8741e+12
    8.0588 1.8782e+12
    8.0712 1.8824e+12
    8.0836 1.8865e+12
     8.096 1.8906e+12
    8.1084 1.8947e+12
    8.1208 1.8989e+12
    8.1332  1.903e+12
    8.1456 1.9071e+12
     8.158 1.9113e+12
    8.1704 1.9154e+12
    8.1828 1.9195e+12
    8.1952 1.9236e+12
    8.2076 1.9277e+12
      8.22 1.9319e+12
    8.2324  1.936e+12
    8.2448 1.9401e+12
    8.2572 1.9442e+12
    8.2696 1.9483e+12
     8.282 1.9525e+12
    8.2944 1.9566e+12
    8.3067 1.9607e+12
    8.3191 1.9648e+12
    8.3315 1.9689e+12
    8.3439  1.973e+12
    8.3563 1.9772e+12
    8.3687 1.9813e+12
    8.3811 1.9854e+12
    8.3935 1.9895e+12
    8.4059 1.9936e+12
    8.4183 1.9977e+12
    8.4307 2.0018e+12
    8.4431 2.0059e+12
    8.4555   2.01e+12
    8.4679 2.0141e+12
    8.4803 2.0182e+12
    8.4927 2.0223e+12
    8.5051 2.0264e+12
    8.5175 2.0305e+12
    8.5299 2.0346e+12
    8.5423 2.0387e+12
    8.5547 2.0428e+12
    8.5671 2.0469e+12
    8.5795  2.051e+12
    8.5919 2.0551e+12
    8.6043 2.0592e+12
    8.6167 2.0633e+12
    8.6291 2.0674e+12
    8.6415 2.0715e+12
    8.6539 2.0756e+12
    8.6663 2.0797e+12
    8.6787 2.0837e+12
    8.6911 2.0878e+12
    8.7035 2.0919e+12
    8.7159  2.096e+12
    8.7283 2.1001e+12
    8.7407 2.1042e+12
    8.7531 2.1083e+12
    8.7655 2.1123e+12
    8.7779 2.1164e+12
    8.7903 2.1205e+12
    8.8027 2.1246e+12
    8.8151 2.1287e+12
    8.8275 2.1327e+12
    8.8399 2.1368e+12
    8.8523 2.1409e+12
    8.8647  2.145e+12
    8.8771  2.149e+12
    8.8895 2.1531e+12
    8.9019 2.1572e+12
    8.9143 2.1612e+12
    8.9267 2.1653e+12
    8.9391 2.1694e+12
    8.9515 2.1734e+12
    8.9639 2.1775e+12
    8.9762 2.1816e+12
    8.9886 2.1856e+12
     9.001 2.1897e+12
    9.0134 2.1937e+12
    9.0258 2.1978e+12
    9.0382 2.2019e+12
    9.0506 2.2059e+12
     9.063   2.21e+12
    9.0754  2.214e+12
    9.0878 2.2181e+12
    9.1002 2.2221e+12
    9.1126 2.2262e+12
     9.125 2.2302e+12
    9.1374 2.2343e+12
    9.1498 2.2383e+12
    9.1622 2.2423e+12
    9.1746 2.2464e+12
     9.187 2.2504e+12
    9.1994 2.2545e+12
    9.2118 2.2585e+12
    9.2242 2.2625e+12
    9.2366 2.2666e+12
     9.249 2.2706e+12
    9.2614 2.2746e+12
    9.2738 2.2787e+12
    9.2862 2.2827e+12
    9.2986 2.2867e+12
     9.311 2.2908e+12
    9.3234 2.2948e+12
    9.3358 2.2988e+12
    9.3482 2.3028e+12
    9.3606 2.3069e+12
     9.373 2.3109e+12
    9.3854 2.3149e+12
    9.3978 2.3189e+12
    9.4102  2.323e+12
    9.4226  2.327e+12
     9.435  2.331e+12
    9.4474  2.335e+12
    9.4598  2.339e+12
    9.4722  2.343e+12
    9.4846  2.347e+12
     9.497  2.351e+12
    9.5094  2.355e+12
    9.5218 2.3591e+12
    9.5342 2.3631e+12
    9.5466 2.3671e+12
     9.559 2.3711e+12
    9.5714 2.3751e+12
    9.5838  2.379e+12
    9.5962 2.3831e+12
    9.6086  2.387e+12
     9.621  2.391e+12
    9.6333  2.395e+12
    9.6457  2.399e+12
    9.6581  2.403e+12
    9.6705  2.407e+12
    9.6829  2.411e+12
    9.6953  2.415e+12
    9.7077  2.419e+12
    9.7201 2.4229e+12
    9.7325 2.4269e+12
    9.7449 2.4309e+12
    9.7573 2.4349e+12
    9.7697 2.4389e+12
    9.7821 2.4428e+12
    9.7945 2.4468e+12
    9.8069 2.4508e+12
    9.8193 2.4548e+12
    9.8317 2.4587e+12
    9.8441 2.4627e+12
    9.8565 2.4667e+12
    9.8689 2.4706e+12
    9.8813 2.4746e+12
    9.8937 2.4786e+12
    9.9061 2.4825e+12
    9.9185 2.4865e+12
    9.9309 2.4904e+12
    9.9433 2.4944e+12
    9.9557 2.4983e+12
    9.9681 2.5023e+12
    9.9805 2.5062e+12
    9.9929 2.5102e+12
    10.005 2.5141e+12
    10.018 2.5181e+12
     10.03  2.522e+12
    10.042  2.526e+12
    10.055 2.5299e+12
    10.067 2.5339e+12
     10.08 2.5378e+12
    10.092 2.5417e+12
    10.104 2.5457e+12
    10.117 2.5496e+12
    10.129 2.5535e+12
    10.142 2.5575e+12
    10.154 2.5614e+12
    10.166 2.5653e+12
    10.179 2.5693e+12
    10.191 2.5732e+12
    10.204 2.5771e+12
    10.216  2.581e+12
    10.228  2.585e+12
    10.241 2.5889e+12
    10.253 2.5928e+12
    10.266 2.5967e+12
    10.278 2.6006e+12
     10.29 2.6045e+12
    10.303 2.6084e+12
    10.315 2.6123e+12
    10.328 2.6163e+12
     10.34 2.6202e+12
    10.352 2.6241e+12
    10.365  2.628e+12
    10.377 2.6319e+12
     10.39 2.6358e+12
    10.402 2.6397e+12
    10.414 2.6436e+12
    10.427 2.6475e+12
    10.439 2.6513e+12
    10.452 2.6552e+12
    10.464 2.6591e+12
    10.476  2.663e+12
    10.489 2.6669e+12
    10.501 2.6708e+12
    10.514 2.6747e+12
    10.526 2.6785e+12
    10.538 2.6824e+12
    10.551 2.6863e+12
    10.563 2.6902e+12
    10.576 2.6941e+12
    10.588 2.6979e+12
      10.6 2.7018e+12
    10.613 2.7057e+12
    10.625 2.7095e+12
    10.638 2.7134e+12
     10.65 2.7173e+12
    10.662 2.7211e+12
    10.675  2.725e+12
    10.687 2.7289e+12
      10.7 2.7327e+12
    10.712 2.7366e+12
    10.724 2.7404e+12
    10.737 2.7443e+12
    10.749 2.7481e+12
    10.762  2.752e+12
    10.774 2.7558e+12
    10.786 2.7597e+12
    10.799 2.7635e+12
    10.811 2.7673e+12
    10.824 2.7712e+12
    10.836  2.775e+12
    10.848 2.7789e+12
    10.861 2.7827e+12
    10.873 2.7865e+12
    10.886 2.7904e+12
    10.898 2.7942e+12
     10.91  2.798e+12
    10.923 2.8019e+12
    10.935 2.8057e+12
    10.948 2.8095e+12
     10.96 2.8133e+12
    10.972 2.8171e+12
    10.985 2.8209e+12
    10.997 2.8248e+12
     11.01 2.8286e+12
    11.022 2.8324e+12
    11.034 2.8362e+12
    11.047   2.84e+12
    11.059 2.8438e+12
    11.072 2.8476e+12
    11.084 2.8514e+12
    11.096 2.8552e+12
    11.109  2.859e+12
    11.121 2.8628e+12
    11.134 2.8666e+12
    11.146 2.8704e+12
    11.158 2.8742e+12
    11.171  2.878e+12
    11.183 2.8818e+12
    11.196 2.8856e+12
    11.208 2.8894e+12
     11.22 2.8932e+12
    11.233 2.8969e+12
    11.245 2.9007e+12
    11.258 2.9045e+12
     11.27 2.9083e+12
    11.282  2.912e+12
    11.295 2.9158e+12
    11.307 2.9196e+12
    11.319 2.9234e+12
    11.332 2.9271e+12
    11.344 2.9309e+12
    11.357 2.9347e+12
    11.369 2.9384e+12
    11.381 2.9422e+12
    11.394 2.9459e+12
    11.406 2.9497e+12
    11.419 2.9535e+12
    11.431 2.9572e+12
    11.443  2.961e+12
    11.456 2.9647e+12
    11.468 2.9685e+12
    11.481 2.9722e+12
    11.493 2.9759e+12
    11.505 2.9797e+12
    11.518 2.9834e+12
     11.53 2.9872e+12
    11.543 2.9909e+12
    11.555 2.9946e+12
    11.567 2.9984e+12
     11.58 3.0021e+12
    11.592 3.0058e+12
    11.605 3.0096e+12
    11.617 3.0133e+12
    11.629  3.017e+12
    11.642 3.0207e+12
    11.654 3.0245e+12
    11.667 3.0282e+12
    11.679 3.0319e+12
    11.691 3.0356e+12
    11.704 3.0393e+12
    11.716  3.043e+12
    11.729 3.0468e+12
    11.741 3.0505e+12
    11.753 3.0542e+12
    11.766 3.0579e+12
    11.778 3.0616e+12
    11.791 3.0653e+12
    11.803  3.069e+12
    11.815 3.0727e+12
    11.828 3.0764e+12
     11.84 3.0801e+12
    11.853 3.0837e+12
    11.865 3.0874e+12
    11.877 3.0911e+12
     11.89 3.0948e+12
    11.902 3.0985e+12
    11.915 3.1022e+12
    11.927 3.1058e+12
    11.939 3.1095e+12
    11.952 3.1132e+12
    11.964 3.1169e+12
    11.977 3.1206e+12
    11.989 3.1242e+12
    12.001 3.1279e+12
    12.014 3.1316e+12
    12.026 3.1352e+12
    12.039 3.1389e+12
    12.051 3.1426e+12
    12.063 3.1462e+12
    12.076 3.1499e+12
    12.088 3.1535e+12
    12.101 3.1572e+12
    12.113 3.1608e+12
    12.125 3.1645e+12
    12.138 3.1681e+12
     12.15 3.1718e+12
    12.163 3.1754e+12
    12.175 3.1791e+12
    12.187 3.1827e+12
      12.2 3.1863e+12
    12.212   3.19e+12
    12.225 3.1936e+12
    12.237 3.1972e+12
    12.249 3.2009e+12
    12.262 3.2045e+12
    12.274 3.2081e+12
    12.287 3.2118e+12
    12.299 3.2154e+12
    12.311  3.219e+12
    12.324 3.2226e+12
    12.336 3.2262e+12
    12.349 3.2299e+12
    12.361 3.2335e+12
    12.373 3.2371e+12
    12.386 3.2407e+12
    12.398 3.2443e+12
    12.411 3.2479e+12
    12.423 3.2515e+12
    12.435 3.2551e+12
    12.448 3.2587e+12
     12.46 3.2623e+12
    12.473 3.2659e+12
    12.485 3.2695e+12
    12.497 3.2731e+12
     12.51 3.2767e+12
    12.522 3.2803e+12
    12.535 3.2839e+12
    12.547 3.2875e+12
    12.559  3.291e+12
    12.572 3.2946e+12
    12.584 3.2982e+12
    12.597 3.3018e+12
    12.609 3.3054e+12
    12.621 3.3089e+12
    12.634 3.3125e+12
    12.646 3.3161e+12
    12.658 3.3196e+12
    12.671 3.3232e+12
    12.683 3.3268e+12
    12.696 3.3303e+12
    12.708 3.3339e+12
     12.72 3.3375e+12
    12.733  3.341e+12
    12.745 3.3446e+12
    12.758 3.3481e+12
     12.77 3.3517e+12
    12.782 3.3552e+12
    12.795 3.3588e+12
    12.807 3.3623e+12
     12.82 3.3659e+12
    12.832 3.3694e+12
    12.844  3.373e+12
    12.857 3.3765e+12
    12.869   3.38e+12
    12.882 3.3836e+12
    12.894 3.3871e+12
    12.906 3.3906e+12
    12.919 3.3942e+12
    12.931 3.3977e+12
    12.944 3.4012e+12
    12.956 3.4047e+12
    12.968 3.4082e+12
    12.981 3.4118e+12
    12.993 3.4153e+12
    13.006 3.4188e+12
    13.018 3.4223e+12
     13.03 3.4258e+12
    13.043 3.4293e+12
    13.055 3.4328e+12
    13.068 3.4363e+12
     13.08 3.4399e+12
    13.092 3.4434e+12
    13.105 3.4469e+12
    13.117 3.4503e+12
     13.13 3.4538e+12
    13.142 3.4573e+12
    13.154 3.4608e+12
    13.167 3.4643e+12
    13.179 3.4678e+12
    13.192 3.4713e+12
    13.204 3.4748e+12
    13.216 3.4783e+12
    13.229 3.4818e+12
    13.241 3.4852e+12
    13.254 3.4887e+12
    13.266 3.4922e+12
    13.278 3.4957e+12
    13.291 3.4991e+12
    13.303 3.5026e+12
    13.316 3.5061e+12
    13.328 3.5095e+12
     13.34  3.513e+12
    13.353 3.5165e+12
    13.365 3.5199e+12
    13.378 3.5234e+12
     13.39 3.5268e+12
    13.402 3.5303e+12
    13.415 3.5337e+12
    13.427 3.5372e+12
     13.44 3.5406e+12
    13.452 3.5441e+12
    13.464 3.5475e+12
    13.477  3.551e+12
    13.489 3.5544e+12
    13.502 3.5579e+12
    13.514 3.5613e+12
    13.526 3.5647e+12
    13.539 3.5682e+12
    13.551 3.5716e+12
    13.564  3.575e+12
    13.576 3.5785e+12
    13.588 3.5819e+12
    13.601 3.5853e+12
    13.613 3.5887e+12
    13.626 3.5921e+12
    13.638 3.5956e+12
     13.65  3.599e+12
    13.663 3.6024e+12
    13.675 3.6058e+12
    13.688 3.6092e+12
      13.7 3.6126e+12
    13.712  3.616e+12
    13.725 3.6194e+12
    13.737 3.6228e+12
     13.75 3.6262e+12
    13.762 3.6296e+12
    13.774  3.633e+12
    13.787 3.6364e+12
    13.799 3.6398e+12
    13.812 3.6432e+12
    13.824 3.6466e+12
    13.836   3.65e+12
    13.849 3.6534e+12
    13.861 3.6568e+12
    13.874 3.6601e+12
    13.886 3.6635e+12
    13.898 3.6669e+12
    13.911 3.6703e+12
    13.923 3.6736e+12
    13.936  3.677e+12
    13.948 3.6804e+12
     13.96 3.6838e+12
    13.973 3.6871e+12
    13.985 3.6905e+12
    13.997 3.6939e+12
     14.01 3.6972e+12
    14.022 3.7006e+12
    14.035 3.7039e+12
    14.047 3.7073e+12
    14.059 3.7106e+12
    14.072  3.714e+12
    14.084 3.7173e+12
    14.097 3.7207e+12
    14.109  3.724e+12
    14.121 3.7274e+12
    14.134 3.7307e+12
    14.146 3.7341e+12
    14.159 3.7374e+12
    14.171 3.7407e+12
    14.183 3.7441e+12
    14.196 3.7474e+12
    14.208 3.7507e+12
    14.221 3.7541e+12
    14.233 3.7574e+12
    14.245 3.7607e+12
    14.258  3.764e+12
     14.27 3.7674e+12
    14.283 3.7707e+12
    14.295  3.774e+12
    14.307 3.7773e+12
     14.32 3.7806e+12
    14.332 3.7839e+12
    14.345 3.7872e+12
    14.357 3.7906e+12
    14.369 3.7939e+12
    14.382 3.7972e+12
    14.394 3.8005e+12
    14.407 3.8038e+12
    14.419  3.807e+12
    14.431 3.8104e+12
    14.444 3.8136e+12
    14.456 3.8169e+12
    14.469 3.8202e+12
    14.481 3.8235e+12
    14.493 3.8268e+12
    14.506 3.8301e+12
    14.518 3.8334e+12
    14.531 3.8366e+12
    14.543 3.8399e+12
    14.555 3.8432e+12
    14.568 3.8465e+12
     14.58 3.8498e+12
    14.593 3.8531e+12
    14.605 3.8563e+12
    14.617 3.8596e+12
     14.63 3.8629e+12
    14.642 3.8661e+12
    14.655 3.8694e+12
    14.667 3.8726e+12
    14.679 3.8759e+12
    14.692 3.8792e+12
    14.704 3.8824e+12
    14.717 3.8857e+12
    14.729 3.8889e+12
    14.741 3.8922e+12
    14.754 3.8954e+12
    14.766 3.8987e+12
    14.779 3.9019e+12
    14.791 3.9051e+12
    14.803 3.9084e+12
    14.816 3.9116e+12
    14.828 3.9149e+12
    14.841 3.9181e+12
    14.853 3.9213e+12
    14.865 3.9246e+12
    14.878 3.9278e+12
     14.89  3.931e+12
    14.903 3.9342e+12
    14.915 3.9375e+12
    14.927 3.9407e+12
     14.94 3.9439e+12
    14.952 3.9471e+12
    14.965 3.9503e+12
    14.977 3.9536e+12
    14.989 3.9568e+12
    15.002   3.96e+12
    15.014 3.9632e+12
    15.027 3.9664e+12
    15.039 3.9696e+12
    15.051 3.9728e+12
    15.064  3.976e+12
    15.076 3.9792e+12
    15.089 3.9824e+12
    15.101 3.9856e+12
    15.113 3.9888e+12
    15.126  3.992e+12
    15.138 3.9952e+12
    15.151 3.9984e+12
    15.163 4.0016e+12
    15.175 4.0047e+12
    15.188 4.0079e+12
      15.2 4.0111e+12
    15.213 4.0143e+12
    15.225 4.0175e+12
    15.237 4.0206e+12
     15.25 4.0238e+12
    15.262  4.027e+12
    15.275 4.0301e+12
    15.287 4.0333e+12
    15.299 4.0365e+12
    15.312 4.0396e+12
    15.324 4.0428e+12
    15.336  4.046e+12
    15.349 4.0491e+12
    15.361 4.0523e+12
    15.374 4.0554e+12
    15.386 4.0586e+12
    15.398 4.0617e+12
    15.411 4.0649e+12
    15.423  4.068e+12
    15.436 4.0712e+12
    15.448 4.0743e+12
     15.46 4.0775e+12
    15.473 4.0806e+12
    15.485 4.0837e+12
    15.498 4.0869e+12
     15.51   4.09e+12
    15.522 4.0932e+12
    15.535 4.0963e+12
    15.547 4.0994e+12
     15.56 4.1025e+12
    15.572 4.1057e+12
    15.584 4.1088e+12
    15.597 4.1119e+12
    15.609  4.115e+12
    15.622 4.1182e+12
    15.634 4.1213e+12
    15.646 4.1244e+12
    15.659 4.1275e+12
    15.671 4.1306e+12
    15.684 4.1337e+12
    15.696 4.1368e+12
    15.708 4.1399e+12
    15.721 4.1431e+12
    15.733 4.1461e+12
    15.746 4.1492e+12
    15.758 4.1523e+12
     15.77 4.1554e+12
    15.783 4.1585e+12
    15.795 4.1616e+12
    15.808 4.1647e+12
     15.82 4.1678e+12
    15.832 4.1709e+12
    15.845  4.174e+12
    15.857 4.1771e+12
     15.87 4.1801e+12
    15.882 4.1832e+12
    15.894 4.1863e+12
    15.907 4.1894e+12
    15.919 4.1924e+12
    15.932 4.1955e+12
    15.944 4.1986e+12
    15.956 4.2017e+12
    15.969 4.2047e+12
    15.981 4.2078e+12
    15.994 4.2109e+12
    16.006 4.2139e+12
    16.018  4.217e+12
    16.031   4.22e+12
    16.043 4.2231e+12
    16.056 4.2262e+12
    16.068 4.2292e+12
     16.08 4.2323e+12
    16.093 4.2353e+12
    16.105 4.2384e+12
    16.118 4.2414e+12
     16.13 4.2445e+12
    16.142 4.2475e+12
    16.155 4.2505e+12
    16.167 4.2536e+12
     16.18 4.2566e+12
    16.192 4.2596e+12
    16.204 4.2627e+12
    16.217 4.2657e+12
    16.229 4.2687e+12
    16.242 4.2718e+12
    16.254 4.2748e+12
    16.266 4.2778e+12
    16.279 4.2808e+12
    16.291 4.2839e+12
    16.304 4.2869e+12
    16.316 4.2899e+12
    16.328 4.2929e+12
    16.341 4.2959e+12
    16.353 4.2989e+12
    16.366 4.3019e+12
    16.378 4.3049e+12
     16.39  4.308e+12
    16.403  4.311e+12
    16.415  4.314e+12
    16.428  4.317e+12
     16.44   4.32e+12
    16.452  4.323e+12
    16.465  4.326e+12
    16.477  4.329e+12
     16.49  4.332e+12
    16.502  4.335e+12
    16.514  4.338e+12
    16.527 4.3409e+12
    16.539 4.3439e+12
    16.552 4.3469e+12
    16.564 4.3499e+12
    16.576 4.3529e+12
    16.589 4.3558e+12
    16.601 4.3588e+12
    16.613 4.3618e+12
    16.626 4.3648e+12
    16.638 4.3677e+12
    16.651 4.3707e+12
    16.663 4.3737e+12
    16.675 4.3767e+12
    16.688 4.3796e+12
      16.7 4.3826e+12
    16.713 4.3855e+12
    16.725 4.3885e+12
    16.737 4.3915e+12
     16.75 4.3944e+12
    16.762 4.3974e+12
    16.775 4.4003e+12
    16.787 4.4033e+12
    16.799 4.4062e+12
    16.812 4.4092e+12
    16.824 4.4121e+12
    16.837 4.4151e+12
    16.849  4.418e+12
    16.861 4.4209e+12
    16.874 4.4239e+12
    16.886 4.4268e+12
    16.899 4.4298e+12
    16.911 4.4327e+12
    16.923 4.4356e+12
    16.936 4.4386e+12
    16.948 4.4415e+12
    16.961 4.4444e+12
    16.973 4.4473e+12
    16.985 4.4503e+12
    16.998 4.4532e+12
     17.01 4.4561e+12
    17.023  4.459e+12
    17.035 4.4619e+12
    17.047 4.4648e+12
     17.06 4.4678e+12
    17.072 4.4707e+12
    17.085 4.4736e+12
    17.097 4.4765e+12
    17.109 4.4794e+12
    17.122 4.4823e+12
    17.134 4.4852e+12
    17.147 4.4881e+12
    17.159  4.491e+12
    17.171 4.4939e+12
    17.184 4.4968e+12
    17.196 4.4997e+12
    17.209 4.5026e+12
    17.221 4.5055e+12
    17.233 4.5084e+12
    17.246 4.5112e+12
    17.258 4.5141e+12
    17.271  4.517e+12
    17.283 4.5199e+12
    17.295 4.5228e+12
    17.308 4.5257e+12
     17.32 4.5285e+12
    17.333 4.5314e+12
    17.345 4.5343e+12
    17.357 4.5371e+12
     17.37   4.54e+12
    17.382 4.5429e+12
    17.395 4.5458e+12
    17.407 4.5486e+12
    17.419 4.5515e+12
    17.432 4.5544e+12
    17.444 4.5572e+12
    17.457 4.5601e+12
    17.469 4.5629e+12
    17.481 4.5658e+12
    17.494 4.5686e+12
    17.506 4.5715e+12
    17.519 4.5743e+12
    17.531 4.5772e+12
    17.543   4.58e+12
    17.556 4.5829e+12
    17.568 4.5857e+12
    17.581 4.5886e+12
    17.593 4.5914e+12
    17.605 4.5942e+12
    17.618 4.5971e+12
     17.63 4.5999e+12
    17.643 4.6027e+12
    17.655 4.6056e+12
    17.667 4.6084e+12
     17.68 4.6112e+12
    17.692 4.6141e+12
    17.705 4.6169e+12
    17.717 4.6197e+12
    17.729 4.6225e+12
    17.742 4.6254e+12
    17.754 4.6282e+12
    17.767  4.631e+12
    17.779 4.6338e+12
    17.791 4.6366e+12
    17.804 4.6394e+12
    17.816 4.6423e+12
    17.829  4.645e+12
    17.841 4.6478e+12
    17.853 4.6506e+12
    17.866 4.6535e+12
    17.878 4.6563e+12
    17.891 4.6591e+12
    17.903 4.6619e+12
    17.915 4.6647e+12
    17.928 4.6675e+12
     17.94 4.6702e+12
    17.952 4.6731e+12
    17.965 4.6759e+12
    17.977 4.6786e+12
     17.99 4.6814e+12
    18.002 4.6842e+12
    18.014  4.687e+12
    18.027 4.6897e+12
    18.039 4.6925e+12
    18.052 4.6953e+12
    18.064 4.6981e+12
    18.076 4.7009e+12
    18.089 4.7037e+12
    18.101 4.7064e+12
    18.114 4.7092e+12
    18.126  4.712e+12
    18.138 4.7147e+12
    18.151 4.7175e+12
    18.163 4.7202e+12
    18.176  4.723e+12
    18.188 4.7258e+12
      18.2 4.7285e+12
    18.213 4.7313e+12
    18.225 4.7341e+12
    18.238 4.7368e+12
     18.25 4.7396e+12
    18.262 4.7423e+12
    18.275 4.7451e+12
    18.287 4.7478e+12
      18.3 4.7505e+12
    18.312 4.7533e+12
    18.324 4.7561e+12
    18.337 4.7588e+12
    18.349 4.7615e+12
    18.362 4.7643e+12
    18.374  4.767e+12
    18.386 4.7697e+12
    18.399 4.7725e+12
    18.411 4.7752e+12
    18.424 4.7779e+12
    18.436 4.7807e+12
    18.448 4.7834e+12
    18.461 4.7861e+12
    18.473 4.7888e+12
    18.486 4.7916e+12
    18.498 4.7943e+12
     18.51  4.797e+12
    18.523 4.7997e+12
    18.535 4.8024e+12
    18.548 4.8051e+12
     18.56 4.8079e+12
    18.572 4.8106e+12
    18.585 4.8133e+12
    18.597  4.816e+12
     18.61 4.8187e+12
    18.622 4.8214e+12
    18.634 4.8241e+12
    18.647 4.8268e+12
    18.659 4.8295e+12
    18.672 4.8322e+12
    18.684 4.8349e+12
    18.696 4.8376e+12
    18.709 4.8403e+12
    18.721  4.843e+12
    18.734 4.8457e+12
    18.746 4.8484e+12
    18.758  4.851e+12
    18.771 4.8537e+12
    18.783 4.8564e+12
    18.796 4.8591e+12
    18.808 4.8618e+12
     18.82 4.8645e+12
    18.833 4.8671e+12
    18.845 4.8698e+12
    18.858 4.8725e+12
     18.87 4.8752e+12
    18.882 4.8778e+12
    18.895 4.8805e+12
    18.907 4.8832e+12
     18.92 4.8858e+12
    18.932 4.8885e+12
    18.944 4.8912e+12
    18.957 4.8938e+12
    18.969 4.8965e+12
    18.982 4.8992e+12
    18.994 4.9018e+12
    19.006 4.9045e+12
    19.019 4.9071e+12
    19.031 4.9098e+12
    19.044 4.9124e+12
    19.056 4.9151e+12
    19.068 4.9177e+12
    19.081 4.9204e+12
    19.093  4.923e+12
    19.106 4.9257e+12
    19.118 4.9283e+12
     19.13 4.9309e+12
    19.143 4.9336e+12
    19.155 4.9362e+12
    19.168 4.9389e+12
     19.18 4.9415e+12
    19.192 4.9441e+12
    19.205 4.9467e+12
    19.217 4.9494e+12
     19.23  4.952e+12
    19.242 4.9546e+12
    19.254 4.9573e+12
    19.267 4.9599e+12
    19.279 4.9625e+12
    19.291 4.9651e+12
    19.304 4.9678e+12
    19.316 4.9704e+12
    19.329  4.973e+12
    19.341 4.9756e+12
    19.353 4.9782e+12
    19.366 4.9808e+12
    19.378 4.9834e+12
    19.391 4.9861e+12
    19.403 4.9886e+12
    19.415 4.9913e+12
    19.428 4.9939e+12
     19.44 4.9965e+12
    19.453 4.9991e+12
    19.465 5.0017e+12
    19.477 5.0043e+12
     19.49 5.0068e+12
    19.502 5.0094e+12
    19.515 5.0121e+12
    19.527 5.0146e+12
    19.539 5.0172e+12
    19.552 5.0198e+12
    19.564 5.0224e+12
    19.577  5.025e+12
    19.589 5.0276e+12
    19.601 5.0301e+12
    19.614 5.0327e+12
    19.626 5.0353e+12
    19.639 5.0379e+12
    19.651 5.0405e+12
    19.663 5.0431e+12
    19.676 5.0456e+12
    19.688 5.0482e+12
    19.701 5.0508e+12
    19.713 5.0533e+12
    19.725 5.0559e+12
    19.738 5.0585e+12
     19.75  5.061e+12
    19.763 5.0636e+12
    19.775 5.0661e+12
    19.787 5.0687e+12
      19.8 5.0713e+12
    19.812 5.0738e+12
    19.825 5.0764e+12
    19.837 5.0789e+12
    19.849 5.0815e+12
    19.862  5.084e+12
    19.874 5.0866e+12
    19.887 5.0891e+12
    19.899 5.0917e+12
    19.911 5.0942e+12
    19.924 5.0968e+12
    19.936 5.0993e+12
    19.949 5.1019e+12
    19.961 5.1044e+12
    19.973 5.1069e+12
    19.986 5.1095e+12
    19.998  5.112e+12
    20.011 5.1145e+12
    20.023 5.1171e+12
    20.035 5.1196e+12
    20.048 5.1221e+12
     20.06 5.1247e+12
    20.073 5.1272e+12
    20.085 5.1297e+12
    20.097 5.1322e+12
     20.11 5.1348e+12
    20.122 5.1373e+12
    20.135 5.1398e+12
    20.147 5.1423e+12
    20.159 5.1448e+12
    20.172 5.1473e+12
    20.184 5.1498e+12
    20.197 5.1524e+12
    20.209 5.1549e+12
    20.221 5.1574e+12
    20.234 5.1599e+12
    20.246 5.1624e+12
    20.259 5.1649e+12
    20.271 5.1674e+12
    20.283 5.1699e+12
    20.296 5.1724e+12
    20.308 5.1749e+12
    20.321 5.1774e+12
    20.333 5.1799e+12
    20.345 5.1824e+12
    20.358 5.1849e+12
     20.37 5.1874e+12
    20.383 5.1898e+12
    20.395 5.1924e+12
    20.407 5.1948e+12
     20.42 5.1974e+12
    20.432 5.1998e+12
    20.445 5.2023e+12
    20.457 5.2048e+12
    20.469 5.2073e+12
    20.482 5.2097e+12
    20.494 5.2122e+12
    20.507 5.2147e+12
    20.519 5.2172e+12
    20.531 5.2196e+12
    20.544 5.2221e+12
    20.556 5.2246e+12
    20.569 5.2271e+12
    20.581 5.2295e+12
    20.593  5.232e+12
    20.606 5.2345e+12
    20.618 5.2369e+12
     20.63 5.2394e+12
    20.643 5.2418e+12
    20.655 5.2443e+12
    20.668 5.2468e+12
     20.68 5.2492e+12
    20.692 5.2517e+12
    20.705 5.2541e+12
    20.717 5.2566e+12
     20.73  5.259e+12
    20.742 5.2615e+12
    20.754 5.2639e+12
    20.767 5.2664e+12
    20.779 5.2688e+12
    20.792 5.2713e+12
    20.804 5.2737e+12
    20.816 5.2761e+12
    20.829 5.2786e+12
    20.841  5.281e+12
    20.854 5.2834e+12
    20.866 5.2859e+12
    20.878 5.2883e+12
    20.891 5.2908e+12
    20.903 5.2932e+12
    20.916 5.2956e+12
    20.928  5.298e+12
     20.94 5.3005e+12
    20.953 5.3029e+12
    20.965 5.3053e+12
    20.978 5.3077e+12
     20.99 5.3102e+12
    21.002 5.3126e+12
    21.015  5.315e+12
    21.027 5.3174e+12
     21.04 5.3198e+12
    21.052 5.3222e+12
    21.064 5.3247e+12
    21.077 5.3271e+12
    21.089 5.3295e+12
    21.102 5.3319e+12
    21.114 5.3343e+12
    21.126 5.3367e+12
    21.139 5.3391e+12
    21.151 5.3415e+12
    21.164 5.3439e+12
    21.176 5.3463e+12
    21.188 5.3487e+12
    21.201 5.3511e+12
    21.213 5.3535e+12
    21.226 5.3559e+12
    21.238 5.3583e+12
     21.25 5.3607e+12
    21.263  5.363e+12
    21.275 5.3654e+12
    21.288 5.3678e+12
      21.3 5.3702e+12
    21.312 5.3726e+12
    21.325  5.375e+12
    21.337 5.3774e+12
     21.35 5.3798e+12
    21.362 5.3821e+12
    21.374 5.3845e+12
    21.387 5.3869e+12
    21.399 5.3893e+12
    21.412 5.3916e+12
    21.424  5.394e+12
    21.436 5.3964e+12
    21.449 5.3988e+12
    21.461 5.4011e+12
    21.474 5.4035e+12
    21.486 5.4059e+12
    21.498 5.4082e+12
    21.511 5.4106e+12
    21.523  5.413e+12
    21.536 5.4153e+12
    21.548 5.4177e+12
     21.56   5.42e+12
    21.573 5.4224e+12
    21.585 5.4247e+12
    21.598 5.4271e+12
     21.61 5.4295e+12
    21.622 5.4318e+12
    21.635 5.4342e+12
    21.647 5.4365e+12
     21.66 5.4388e+12
    21.672 5.4412e+12
    21.684 5.4435e+12
    21.697 5.4459e+12
    21.709 5.4482e+12
    21.722 5.4506e+12
    21.734 5.4529e+12
    21.746 5.4552e+12
    21.759 5.4576e+12
    21.771 5.4599e+12
    21.784 5.4623e+12
    21.796 5.4646e+12
    21.808 5.4669e+12
    21.821 5.4692e+12
    21.833 5.4716e+12
    21.846 5.4739e+12
    21.858 5.4762e+12
     21.87 5.4786e+12
    21.883 5.4809e+12
    21.895 5.4832e+12
    21.908 5.4855e+12
     21.92 5.4878e+12
    21.932 5.4901e+12
    21.945 5.4925e+12
    21.957 5.4948e+12
    21.969 5.4971e+12
    21.982 5.4994e+12
    21.994 5.5017e+12
    22.007  5.504e+12
    22.019 5.5064e+12
    22.031 5.5087e+12
    22.044 5.5109e+12
    22.056 5.5133e+12
    22.069 5.5156e+12
    22.081 5.5179e+12
    22.093 5.5202e+12
    22.106 5.5225e+12
    22.118 5.5248e+12
    22.131 5.5271e+12
    22.143 5.5294e+12
    22.155 5.5317e+12
    22.168 5.5339e+12
     22.18 5.5362e+12
    22.193 5.5385e+12
    22.205 5.5409e+12
    22.217 5.5431e+12
     22.23 5.5454e+12
    22.242 5.5477e+12
    22.255   5.55e+12
    22.267 5.5523e+12
    22.279 5.5545e+12
    22.292 5.5568e+12
    22.304 5.5591e+12
    22.317 5.5614e+12
    22.329 5.5637e+12
    22.341  5.566e+12
    22.354 5.5682e+12
    22.366 5.5705e+12
    22.379 5.5727e+12
    22.391  5.575e+12
    22.403 5.5773e+12
    22.416 5.5796e+12
    22.428 5.5819e+12
    22.441 5.5841e+12
    22.453 5.5864e+12
    22.465 5.5886e+12
    22.478 5.5909e+12
     22.49 5.5931e+12
    22.503 5.5954e+12
    22.515 5.5977e+12
    22.527 5.5999e+12
     22.54 5.6022e+12
    22.552 5.6044e+12
    22.565 5.6067e+12
    22.577 5.6089e+12
    22.589 5.6112e+12
    22.602 5.6134e+12
    22.614 5.6157e+12
    22.627 5.6179e+12
    22.639 5.6202e+12
    22.651 5.6224e+12
    22.664 5.6247e+12
    22.676 5.6269e+12
    22.689 5.6291e+12
    22.701 5.6314e+12
    22.713 5.6336e+12
    22.726 5.6359e+12
    22.738 5.6381e+12
    22.751 5.6403e+12
    22.763 5.6426e+12
    22.775 5.6448e+12
    22.788  5.647e+12
      22.8 5.6493e+12
    22.813 5.6515e+12
    22.825 5.6537e+12
    22.837 5.6559e+12
     22.85 5.6581e+12
    22.862 5.6604e+12
    22.875 5.6626e+12
    22.887 5.6648e+12
    22.899  5.667e+12
    22.912 5.6693e+12
    22.924 5.6715e+12
    22.937 5.6737e+12
    22.949 5.6759e+12
    22.961 5.6781e+12
    22.974 5.6803e+12
    22.986 5.6825e+12
    22.999 5.6847e+12
    23.011  5.687e+12
    23.023 5.6892e+12
    23.036 5.6914e+12
    23.048 5.6936e+12
    23.061 5.6958e+12
    23.073  5.698e+12
    23.085 5.7002e+12
    23.098 5.7024e+12
     23.11 5.7046e+12
    23.123 5.7068e+12
    23.135  5.709e+12
    23.147 5.7112e+12
     23.16 5.7134e+12
    23.172 5.7156e+12
    23.185 5.7178e+12
    23.197 5.7199e+12
    23.209 5.7221e+12
    23.222 5.7243e+12
    23.234 5.7265e+12
    23.247 5.7287e+12
    23.259 5.7309e+12
    23.271 5.7331e+12
    23.284 5.7352e+12
    23.296 5.7374e+12
    23.308 5.7396e+12
    23.321 5.7418e+12
    23.333 5.7439e+12
    23.346 5.7461e+12
    23.358 5.7483e+12
     23.37 5.7505e+12
    23.383 5.7526e+12
    23.395 5.7548e+12
    23.408  5.757e+12
     23.42 5.7591e+12
    23.432 5.7613e+12
    23.445 5.7635e+12
    23.457 5.7656e+12
     23.47 5.7678e+12
    23.482   5.77e+12
    23.494 5.7721e+12
    23.507 5.7743e+12
    23.519 5.7765e+12
    23.532 5.7786e+12
    23.544 5.7808e+12
    23.556 5.7829e+12
    23.569 5.7851e+12
    23.581 5.7872e+12
    23.594 5.7894e+12
    23.606 5.7915e+12
    23.618 5.7937e+12
    23.631 5.7958e+12
    23.643  5.798e+12
    23.656 5.8001e+12
    23.668 5.8023e+12
     23.68 5.8044e+12
    23.693 5.8065e+12
    23.705 5.8087e+12
    23.718 5.8108e+12
     23.73  5.813e+12
    23.742 5.8151e+12
    23.755 5.8172e+12
    23.767 5.8194e+12
     23.78 5.8215e+12
    23.792 5.8237e+12
    23.804 5.8258e+12
    23.817 5.8279e+12
    23.829   5.83e+12
    23.842 5.8321e+12
    23.854 5.8343e+12
    23.866 5.8364e+12
    23.879 5.8385e+12
    23.891 5.8407e+12
    23.904 5.8428e+12
    23.916 5.8449e+12
    23.928  5.847e+12
    23.941 5.8491e+12
    23.953 5.8512e+12
    23.966 5.8534e+12
    23.978 5.8555e+12
     23.99 5.8576e+12
    24.003 5.8597e+12
    24.015 5.8618e+12
    24.028 5.8639e+12
     24.04  5.866e+12
    24.052 5.8682e+12
    24.065 5.8703e+12
    24.077 5.8723e+12
     24.09 5.8745e+12
    24.102 5.8766e+12
    24.114 5.8787e+12
    24.127 5.8808e+12
    24.139 5.8829e+12
    24.152  5.885e+12
    24.164 5.8871e+12
    24.176 5.8892e+12
    24.189 5.8913e+12
    24.201 5.8934e+12
    24.214 5.8955e+12
    24.226 5.8976e+12
    24.238 5.8996e+12
    24.251 5.9017e+12
    24.263 5.9038e+12
    24.276 5.9059e+12
    24.288  5.908e+12
      24.3 5.9101e+12
    24.313 5.9122e+12
    24.325 5.9142e+12
    24.338 5.9163e+12
     24.35 5.9184e+12
    24.362 5.9205e+12
    24.375 5.9226e+12
    24.387 5.9246e+12
      24.4 5.9267e+12
    24.412 5.9288e+12
    24.424 5.9309e+12
    24.437  5.933e+12
    24.449  5.935e+12
    24.462 5.9371e+12
    24.474 5.9392e+12
    24.486 5.9412e+12
    24.499 5.9433e+12
    24.511 5.9454e+12
    24.524 5.9474e+12
    24.536 5.9495e+12
    24.548 5.9515e+12
    24.561 5.9536e+12
    24.573 5.9557e+12
    24.585 5.9577e+12
    24.598 5.9598e+12
     24.61 5.9618e+12
    24.623 5.9639e+12
    24.635  5.966e+12
    24.647  5.968e+12
     24.66 5.9701e+12
    24.672 5.9721e+12
    24.685 5.9742e+12
    24.697 5.9762e+12
    24.709 5.9783e+12
    24.722 5.9803e+12
    24.734 5.9824e+12
    24.747 5.9844e+12
    24.759 5.9864e+12
    24.771 5.9885e+12
    24.784 5.9905e+12
    24.796 5.9926e+12
    24.809 5.9946e+12
    24.821 5.9967e+12
    24.833 5.9987e+12
    24.846 6.0007e+12
    24.858 6.0028e+12
    24.871 6.0048e+12
    24.883 6.0068e+12
    24.895 6.0089e+12
    24.908 6.0109e+12
     24.92 6.0129e+12
    24.933 6.0149e+12
    24.945  6.017e+12
    24.957  6.019e+12
     24.97  6.021e+12
    24.982 6.0231e+12
    24.995 6.0251e+12
    25.007 6.0271e+12
    25.019 6.0291e+12
    25.032 6.0311e+12
    25.044 6.0331e+12
    25.057 6.0351e+12
    25.069 6.0372e+12
    25.081 6.0392e+12
    25.094 6.0412e+12
    25.106 6.0432e+12
    25.119 6.0453e+12
    25.131 6.0472e+12
    25.143 6.0493e+12
    25.156 6.0513e+12
    25.168 6.0533e+12
    25.181 6.0553e+12
    25.193 6.0573e+12
    25.205 6.0593e+12
    25.218 6.0613e+12
     25.23 6.0633e+12
    25.243 6.0653e+12
    25.255 6.0673e+12
    25.267 6.0693e+12
     25.28 6.0713e+12
    25.292 6.0733e+12
    25.305 6.0753e+12
    25.317 6.0773e+12
    25.329 6.0793e+12
    25.342 6.0813e+12
    25.354 6.0833e+12
    25.367 6.0853e+12
    25.379 6.0873e+12
    25.391 6.0893e+12
    25.404 6.0913e+12
    25.416 6.0932e+12
    25.429 6.0952e+12
    25.441 6.0972e+12
    25.453 6.0992e+12
    25.466 6.1012e+12
    25.478 6.1032e+12
    25.491 6.1051e+12
    25.503 6.1071e+12
    25.515 6.1091e+12
    25.528 6.1111e+12
     25.54  6.113e+12
    25.553  6.115e+12
    25.565  6.117e+12
    25.577  6.119e+12
     25.59 6.1209e+12
    25.602 6.1229e+12
    25.615 6.1249e+12
    25.627 6.1268e+12
    25.639 6.1288e+12
    25.652 6.1308e+12
    25.664 6.1327e+12
    25.677 6.1347e+12
    25.689 6.1367e+12
    25.701 6.1386e+12
    25.714 6.1406e+12
    25.726 6.1426e+12
    25.739 6.1445e+12
    25.751 6.1465e+12
    25.763 6.1485e+12
    25.776 6.1504e+12
    25.788 6.1523e+12
    25.801 6.1543e+12
    25.813 6.1563e+12
    25.825 6.1582e+12
    25.838 6.1602e+12
     25.85 6.1621e+12
    25.863 6.1641e+12
    25.875  6.166e+12
    25.887  6.168e+12
      25.9 6.1699e+12
    25.912 6.1718e+12
    25.924 6.1738e+12
    25.937 6.1757e+12
    25.949 6.1777e+12
    25.962 6.1796e+12
    25.974 6.1816e+12
    25.986 6.1835e+12
    25.999 6.1854e+12
    26.011 6.1874e+12
    26.024 6.1893e+12
    26.036 6.1913e+12
    26.048 6.1932e+12
    26.061 6.1951e+12
    26.073  6.197e+12
    26.086  6.199e+12
    26.098 6.2009e+12
     26.11 6.2028e+12
    26.123 6.2048e+12
    26.135 6.2067e+12
    26.148 6.2086e+12
     26.16 6.2105e+12
    26.172 6.2125e+12
    26.185 6.2144e+12
    26.197 6.2163e+12
     26.21 6.2182e+12
    26.222 6.2201e+12
    26.234 6.2221e+12
    26.247  6.224e+12
    26.259 6.2259e+12
    26.272 6.2278e+12
    26.284 6.2297e+12
    26.296 6.2316e+12
    26.309 6.2335e+12
    26.321 6.2355e+12
    26.334 6.2374e+12
    26.346 6.2393e+12
    26.358 6.2412e+12
    26.371 6.2431e+12
    26.383  6.245e+12
    26.396 6.2469e+12
    26.408 6.2488e+12
     26.42 6.2507e+12
    26.433 6.2526e+12
    26.445 6.2545e+12
    26.458 6.2564e+12
     26.47 6.2583e+12
    26.482 6.2602e+12
    26.495 6.2621e+12
    26.507  6.264e+12
     26.52 6.2659e+12
    26.532 6.2678e+12
    26.544 6.2697e+12
    26.557 6.2716e+12
    26.569 6.2735e+12
    26.582 6.2754e+12
    26.594 6.2773e+12
    26.606 6.2791e+12
    26.619  6.281e+12
    26.631 6.2829e+12
    26.644 6.2848e+12
    26.656 6.2867e+12
    26.668 6.2886e+12
    26.681 6.2905e+12
    26.693 6.2923e+12
    26.706 6.2942e+12
    26.718 6.2961e+12
     26.73  6.298e+12
    26.743 6.2999e+12
    26.755 6.3017e+12
    26.768 6.3036e+12
     26.78 6.3055e+12
    26.792 6.3074e+12
    26.805 6.3092e+12
    26.817 6.3111e+12
     26.83  6.313e+12
    26.842 6.3148e+12
    26.854 6.3167e+12
    26.867 6.3186e+12
    26.879 6.3205e+12
    26.892 6.3223e+12
    26.904 6.3242e+12
    26.916 6.3261e+12
    26.929 6.3279e+12
    26.941 6.3298e+12
    26.954 6.3316e+12
    26.966 6.3335e+12
    26.978 6.3354e+12
    26.991 6.3372e+12
    27.003 6.3391e+12
    27.016 6.3409e+12
    27.028 6.3428e+12
     27.04 6.3446e+12
    27.053 6.3465e+12
    27.065 6.3484e+12
    27.078 6.3502e+12
     27.09 6.3521e+12
    27.102 6.3539e+12
    27.115 6.3558e+12
    27.127 6.3576e+12
     27.14 6.3594e+12
    27.152 6.3613e+12
    27.164 6.3632e+12
    27.177  6.365e+12
    27.189 6.3668e+12
    27.202 6.3687e+12
    27.214 6.3705e+12
    27.226 6.3723e+12
    27.239 6.3742e+12
    27.251  6.376e+12
    27.263 6.3779e+12
    27.276 6.3797e+12
    27.288 6.3815e+12
    27.301 6.3834e+12
    27.313 6.3852e+12
    27.325 6.3871e+12
    27.338 6.3889e+12
     27.35 6.3907e+12
    27.363 6.3925e+12
    27.375 6.3944e+12
    27.387 6.3962e+12
      27.4  6.398e+12
    27.412 6.3999e+12
    27.425 6.4017e+12
    27.437 6.4035e+12
    27.449 6.4053e+12
    27.462 6.4071e+12
    27.474  6.409e+12
    27.487 6.4108e+12
    27.499 6.4126e+12
    27.511 6.4144e+12
    27.524 6.4163e+12
    27.536 6.4181e+12
    27.549 6.4199e+12
    27.561 6.4217e+12
    27.573 6.4235e+12
    27.586 6.4253e+12
    27.598 6.4271e+12
    27.611 6.4289e+12
    27.623 6.4307e+12
    27.635 6.4326e+12
    27.648 6.4344e+12
     27.66 6.4362e+12
    27.673  6.438e+12
    27.685 6.4398e+12
    27.697 6.4416e+12
     27.71 6.4434e+12
    27.722 6.4452e+12
    27.735  6.447e+12
    27.747 6.4488e+12
    27.759 6.4506e+12
    27.772 6.4524e+12
    27.784 6.4542e+12
    27.797  6.456e+12
    27.809 6.4578e+12
    27.821 6.4596e+12
    27.834 6.4614e+12
    27.846 6.4632e+12
    27.859  6.465e+12
    27.871 6.4668e+12
    27.883 6.4685e+12
    27.896 6.4704e+12
    27.908 6.4722e+12
    27.921 6.4739e+12
    27.933 6.4757e+12
    27.945 6.4775e+12
    27.958 6.4793e+12
     27.97  6.481e+12
    27.983 6.4829e+12
    27.995 6.4846e+12
    28.007 6.4864e+12
     28.02 6.4882e+12
    28.032   6.49e+12
    28.045 6.4918e+12
    28.057 6.4935e+12
    28.069 6.4953e+12
    28.082 6.4971e+12
    28.094 6.4989e+12
    28.107 6.5007e+12
    28.119 6.5024e+12
    28.131 6.5042e+12
    28.144  6.506e+12
    28.156 6.5077e+12
    28.169 6.5095e+12
    28.181 6.5113e+12
    28.193 6.5131e+12
    28.206 6.5148e+12
    28.218 6.5166e+12
    28.231 6.5183e+12
    28.243 6.5201e+12
    28.255 6.5219e+12
    28.268 6.5236e+12
     28.28 6.5254e+12
    28.293 6.5271e+12
    28.305 6.5289e+12
    28.317 6.5307e+12
     28.33 6.5325e+12
    28.342 6.5342e+12
    28.355 6.5359e+12
    28.367 6.5377e+12
    28.379 6.5395e+12
    28.392 6.5412e+12
    28.404  6.543e+12
    28.417 6.5447e+12
    28.429 6.5465e+12
    28.441 6.5482e+12
    28.454   6.55e+12
    28.466 6.5517e+12
    28.479 6.5535e+12
    28.491 6.5552e+12
    28.503  6.557e+12
    28.516 6.5587e+12
    28.528 6.5605e+12
    28.541 6.5622e+12
    28.553 6.5639e+12
    28.565 6.5657e+12
    28.578 6.5674e+12
     28.59 6.5692e+12
    28.602 6.5709e+12
    28.615 6.5727e+12
    28.627 6.5744e+12
     28.64 6.5761e+12
    28.652 6.5779e+12
    28.664 6.5796e+12
    28.677 6.5813e+12
    28.689 6.5831e+12
    28.702 6.5848e+12
    28.714 6.5865e+12
    28.726 6.5883e+12
    28.739   6.59e+12
    28.751 6.5917e+12
    28.764 6.5935e+12
    28.776 6.5952e+12
    28.788 6.5969e+12
    28.801 6.5986e+12
    28.813 6.6004e+12
    28.826 6.6021e+12
    28.838 6.6038e+12
     28.85 6.6055e+12
    28.863 6.6072e+12
    28.875  6.609e+12
    28.888 6.6107e+12
      28.9 6.6124e+12
    28.912 6.6141e+12
    28.925 6.6158e+12
    28.937 6.6175e+12
     28.95 6.6193e+12
    28.962  6.621e+12
    28.974 6.6227e+12
    28.987 6.6244e+12
    28.999 6.6261e+12
    29.012 6.6278e+12
    29.024 6.6296e+12
    29.036 6.6313e+12
    29.049  6.633e+12
    29.061 6.6347e+12
    29.074 6.6364e+12
    29.086 6.6381e+12
    29.098 6.6398e+12
    29.111 6.6415e+12
    29.123 6.6432e+12
    29.136 6.6449e+12
    29.148 6.6466e+12
     29.16 6.6483e+12
    29.173   6.65e+12
    29.185 6.6517e+12
    29.198 6.6534e+12
     29.21 6.6551e+12
    29.222 6.6568e+12
    29.235 6.6585e+12
    29.247 6.6602e+12
     29.26 6.6619e+12
    29.272 6.6636e+12
    29.284 6.6653e+12
    29.297  6.667e+12
    29.309 6.6686e+12
    29.322 6.6703e+12
    29.334  6.672e+12
    29.346 6.6737e+12
    29.359 6.6754e+12
    29.371 6.6771e+12
    29.384 6.6788e+12
    29.396 6.6804e+12
    29.408 6.6821e+12
    29.421 6.6838e+12
    29.433 6.6855e+12
    29.446 6.6872e+12
    29.458 6.6889e+12
     29.47 6.6905e+12
    29.483 6.6922e+12
    29.495 6.6939e+12
    29.508 6.6956e+12
     29.52 6.6973e+12
    29.532 6.6989e+12
    29.545 6.7006e+12
    29.557 6.7023e+12
     29.57 6.7039e+12
    29.582 6.7056e+12
    29.594 6.7073e+12
    29.607  6.709e+12
    29.619 6.7106e+12
    29.632 6.7123e+12
    29.644  6.714e+12
    29.656 6.7157e+12
    29.669 6.7173e+12
    29.681  6.719e+12
    29.694 6.7207e+12
    29.706 6.7223e+12
    29.718  6.724e+12
    29.731 6.7256e+12
    29.743 6.7273e+12
    29.756  6.729e+12
    29.768 6.7306e+12
     29.78 6.7323e+12
    29.793 6.7339e+12
    29.805 6.7356e+12
    29.818 6.7373e+12
     29.83 6.7389e+12
    29.842 6.7406e+12
    29.855 6.7422e+12
    29.867 6.7439e+12
     29.88 6.7455e+12
    29.892 6.7472e+12
    29.904 6.7488e+12
    29.917 6.7505e+12
    29.929 6.7521e+12
    29.941 6.7538e+12
    29.954 6.7554e+12
    29.966 6.7571e+12
    29.979 6.7587e+12
    29.991 6.7604e+12
    30.003  6.762e+12
