RRKM rate, sf=0.970, S*=-14.15, E0=1.32 and Delta=1.30
   En (eV)    k (s-1)
         0          0
  0.012398          0
  0.024796          0
  0.037194          0
  0.049593          0
  0.061991          0
  0.074389          0
  0.086787          0
  0.099185          0
   0.11158          0
   0.12398          0
   0.13638          0
   0.14878          0
   0.16118          0
   0.17357          0
   0.18597          0
   0.19837          0
   0.21077          0
   0.22317          0
   0.23556          0
   0.24796          0
   0.26036          0
   0.27276          0
   0.28516          0
   0.29756          0
   0.30995          0
   0.32235          0
   0.33475          0
   0.34715          0
   0.35955          0
   0.37194          0
   0.38434          0
   0.39674          0
   0.40914          0
   0.42154          0
   0.43393          0
   0.44633          0
   0.45873          0
   0.47113          0
   0.48353          0
   0.49593          0
   0.50832          0
   0.52072          0
   0.53312          0
   0.54552          0
   0.55792          0
   0.57031          0
   0.58271          0
   0.59511          0
   0.60751          0
   0.61991          0
    0.6323          0
    0.6447          0
    0.6571          0
    0.6695          0
    0.6819          0
    0.6943          0
   0.70669          0
   0.71909          0
   0.73149          0
   0.74389          0
   0.75629          0
   0.76868          0
   0.78108          0
   0.79348          0
   0.80588          0
   0.81828          0
   0.83067          0
   0.84307          0
   0.85547          0
   0.86787          0
   0.88027          0
   0.89267          0
   0.90506          0
   0.91746          0
   0.92986          0
   0.94226          0
   0.95466          0
   0.96705          0
   0.97945          0
   0.99185          0
    1.0042          0
    1.0166          0
     1.029          0
    1.0414          0
    1.0538          0
    1.0662          0
    1.0786          0
     1.091          0
    1.1034          0
    1.1158          0
    1.1282          0
    1.1406          0
     1.153          0
    1.1654          0
    1.1778          0
    1.1902          0
    1.2026          0
     1.215          0
    1.2274          0
    1.2398          0
    1.2522          0
    1.2646          0
     1.277          0
    1.2894          0
    1.3018          0
    1.3142          0
    1.3266  0.0011344
     1.339  0.0027859
    1.3514  0.0068484
    1.3638   0.012482
    1.3762   0.022542
    1.3886   0.037463
     1.401   0.060231
    1.4134   0.092881
    1.4258    0.13847
    1.4382    0.20299
    1.4506    0.29014
     1.463     0.4092
    1.4754    0.56549
    1.4878    0.77183
    1.5002     1.0388
    1.5126     1.3829
     1.525      1.821
    1.5374     2.3737
    1.5498      3.067
    1.5622     3.9288
    1.5746     4.9954
     1.587      6.304
    1.5994     7.9021
    1.6118     9.8416
    1.6242     12.185
    1.6366         15
     1.649     18.367
    1.6613     22.377
    1.6737     27.131
    1.6861     32.746
    1.6985     39.351
    1.7109     47.093
    1.7233     56.135
    1.7357     66.662
    1.7481     78.876
    1.7605     93.006
    1.7729      109.3
    1.7853     128.05
    1.7977     149.55
    1.8101     174.14
    1.8225      202.2
    1.8349     234.15
    1.8473     270.42
    1.8597     311.52
    1.8721     357.99
    1.8845      410.4
    1.8969     469.41
    1.9093     535.71
    1.9217     610.06
    1.9341     693.28
    1.9465     786.25
    1.9589     889.94
    1.9713     1005.4
    1.9837     1133.7
    1.9961     1276.1
    2.0085     1433.9
    2.0209     1608.4
    2.0333     1801.2
    2.0457     2013.9
    2.0581     2248.1
    2.0705     2505.8
    2.0829     2788.8
    2.0953     3099.4
    2.1077     3439.6
    2.1201     3811.9
    2.1325     4218.9
    2.1449     4663.2
    2.1573     5147.6
    2.1697     5675.3
    2.1821     6249.4
    2.1945     6873.3
    2.2069     7550.8
    2.2193     8285.5
    2.2317     9081.5
    2.2441     9943.3
    2.2565      10875
    2.2689      11882
    2.2813      12968
    2.2937      14140
    2.3061      15403
    2.3185      16762
    2.3308      18224
    2.3432      19795
    2.3556      21482
     2.368      23292
    2.3804      25233
    2.3928      27312
    2.4052      29537
    2.4176      31918
      2.43      34462
    2.4424      37181
    2.4548      40082
    2.4672      43177
    2.4796      46476
     2.492      49990
    2.5044      53731
    2.5168      57711
    2.5292      61943
    2.5416      66439
     2.554      71214
    2.5664      76281
    2.5788      81655
    2.5912      87352
    2.6036      93388
     2.616      99779
    2.6284 1.0654e+05
    2.6408  1.137e+05
    2.6532 1.2126e+05
    2.6656 1.2925e+05
     2.678 1.3769e+05
    2.6904 1.4659e+05
    2.7028 1.5599e+05
    2.7152 1.6589e+05
    2.7276 1.7634e+05
      2.74 1.8734e+05
    2.7524 1.9892e+05
    2.7648 2.1111e+05
    2.7772 2.2393e+05
    2.7896 2.3742e+05
     2.802 2.5159e+05
    2.8144 2.6648e+05
    2.8268 2.8212e+05
    2.8392 2.9853e+05
    2.8516 3.1576e+05
     2.864 3.3382e+05
    2.8764 3.5276e+05
    2.8888 3.7261e+05
    2.9012  3.934e+05
    2.9136 4.1518e+05
     2.926 4.3797e+05
    2.9384 4.6182e+05
    2.9508 4.8677e+05
    2.9632 5.1285e+05
    2.9756 5.4012e+05
     2.988 5.6861e+05
    3.0003 5.9836e+05
    3.0127 6.2944e+05
    3.0251 6.6187e+05
    3.0375  6.957e+05
    3.0499   7.31e+05
    3.0623 7.6781e+05
    3.0747 8.0617e+05
    3.0871 8.4615e+05
    3.0995  8.878e+05
    3.1119 9.3117e+05
    3.1243 9.7633e+05
    3.1367 1.0233e+06
    3.1491 1.0722e+06
    3.1615 1.1231e+06
    3.1739  1.176e+06
    3.1863 1.2309e+06
    3.1987 1.2881e+06
    3.2111 1.3474e+06
    3.2235 1.4091e+06
    3.2359 1.4731e+06
    3.2483 1.5396e+06
    3.2607 1.6086e+06
    3.2731 1.6801e+06
    3.2855 1.7543e+06
    3.2979 1.8313e+06
    3.3103 1.9111e+06
    3.3227 1.9938e+06
    3.3351 2.0795e+06
    3.3475 2.1683e+06
    3.3599 2.2603e+06
    3.3723 2.3555e+06
    3.3847  2.454e+06
    3.3971  2.556e+06
    3.4095 2.6616e+06
    3.4219 2.7708e+06
    3.4343 2.8837e+06
    3.4467 3.0004e+06
    3.4591 3.1211e+06
    3.4715 3.2459e+06
    3.4839 3.3748e+06
    3.4963 3.5079e+06
    3.5087 3.6455e+06
    3.5211 3.7875e+06
    3.5335 3.9341e+06
    3.5459 4.0854e+06
    3.5583 4.2416e+06
    3.5707 4.4028e+06
    3.5831  4.569e+06
    3.5955 4.7405e+06
    3.6079 4.9172e+06
    3.6203 5.0995e+06
    3.6327 5.2874e+06
    3.6451  5.481e+06
    3.6574 5.6805e+06
    3.6698  5.886e+06
    3.6822 6.0977e+06
    3.6946 6.3157e+06
     3.707 6.5401e+06
    3.7194 6.7712e+06
    3.7318  7.009e+06
    3.7442 7.2537e+06
    3.7566 7.5054e+06
     3.769 7.7644e+06
    3.7814 8.0308e+06
    3.7938 8.3047e+06
    3.8062 8.5864e+06
    3.8186 8.8759e+06
     3.831 9.1735e+06
    3.8434 9.4794e+06
    3.8558 9.7936e+06
    3.8682 1.0116e+07
    3.8806 1.0448e+07
     3.893 1.0789e+07
    3.9054 1.1138e+07
    3.9178 1.1497e+07
    3.9302 1.1866e+07
    3.9426 1.2244e+07
     3.955 1.2633e+07
    3.9674 1.3031e+07
    3.9798  1.344e+07
    3.9922 1.3859e+07
    4.0046 1.4289e+07
     4.017  1.473e+07
    4.0294 1.5182e+07
    4.0418 1.5645e+07
    4.0542  1.612e+07
    4.0666 1.6607e+07
     4.079 1.7106e+07
    4.0914 1.7618e+07
    4.1038 1.8141e+07
    4.1162 1.8678e+07
    4.1286 1.9227e+07
     4.141  1.979e+07
    4.1534 2.0367e+07
    4.1658 2.0956e+07
    4.1782  2.156e+07
    4.1906 2.2179e+07
     4.203 2.2811e+07
    4.2154 2.3459e+07
    4.2278 2.4121e+07
    4.2402 2.4799e+07
    4.2526 2.5492e+07
     4.265 2.6201e+07
    4.2774 2.6926e+07
    4.2898 2.7668e+07
    4.3022 2.8426e+07
    4.3146 2.9201e+07
    4.3269 2.9994e+07
    4.3393 3.0803e+07
    4.3517 3.1631e+07
    4.3641 3.2477e+07
    4.3765 3.3341e+07
    4.3889 3.4224e+07
    4.4013 3.5126e+07
    4.4137 3.6047e+07
    4.4261 3.6987e+07
    4.4385 3.7948e+07
    4.4509 3.8929e+07
    4.4633 3.9931e+07
    4.4757 4.0953e+07
    4.4881 4.1997e+07
    4.5005 4.3062e+07
    4.5129 4.4149e+07
    4.5253 4.5258e+07
    4.5377  4.639e+07
    4.5501 4.7545e+07
    4.5625 4.8724e+07
    4.5749 4.9925e+07
    4.5873 5.1151e+07
    4.5997 5.2401e+07
    4.6121 5.3676e+07
    4.6245 5.4976e+07
    4.6369 5.6301e+07
    4.6493 5.7652e+07
    4.6617 5.9029e+07
    4.6741 6.0433e+07
    4.6865 6.1864e+07
    4.6989 6.3322e+07
    4.7113 6.4808e+07
    4.7237 6.6321e+07
    4.7361 6.7864e+07
    4.7485 6.9435e+07
    4.7609 7.1036e+07
    4.7733 7.2666e+07
    4.7857 7.4326e+07
    4.7981 7.6017e+07
    4.8105 7.7739e+07
    4.8229 7.9492e+07
    4.8353 8.1277e+07
    4.8477 8.3094e+07
    4.8601 8.4944e+07
    4.8725 8.6826e+07
    4.8849 8.8742e+07
    4.8973 9.0693e+07
    4.9097 9.2677e+07
    4.9221 9.4697e+07
    4.9345 9.6751e+07
    4.9469 9.8842e+07
    4.9593 1.0097e+08
    4.9717 1.0313e+08
     4.984 1.0533e+08
    4.9964 1.0757e+08
    5.0088 1.0984e+08
    5.0212 1.1216e+08
    5.0336 1.1451e+08
     5.046  1.169e+08
    5.0584 1.1934e+08
    5.0708 1.2181e+08
    5.0832 1.2432e+08
    5.0956 1.2688e+08
     5.108 1.2948e+08
    5.1204 1.3212e+08
    5.1328  1.348e+08
    5.1452 1.3752e+08
    5.1576 1.4029e+08
      5.17 1.4311e+08
    5.1824 1.4597e+08
    5.1948 1.4887e+08
    5.2072 1.5182e+08
    5.2196 1.5482e+08
     5.232 1.5786e+08
    5.2444 1.6096e+08
    5.2568  1.641e+08
    5.2692 1.6728e+08
    5.2816 1.7052e+08
     5.294 1.7381e+08
    5.3064 1.7715e+08
    5.3188 1.8053e+08
    5.3312 1.8397e+08
    5.3436 1.8747e+08
     5.356 1.9101e+08
    5.3684 1.9461e+08
    5.3808 1.9826e+08
    5.3932 2.0196e+08
    5.4056 2.0572e+08
     5.418 2.0954e+08
    5.4304 2.1341e+08
    5.4428 2.1734e+08
    5.4552 2.2132e+08
    5.4676 2.2537e+08
      5.48 2.2947e+08
    5.4924 2.3363e+08
    5.5048 2.3785e+08
    5.5172 2.4213e+08
    5.5296 2.4647e+08
     5.542 2.5087e+08
    5.5544 2.5533e+08
    5.5668 2.5986e+08
    5.5792 2.6445e+08
    5.5916  2.691e+08
     5.604 2.7382e+08
    5.6164  2.786e+08
    5.6288 2.8345e+08
    5.6412 2.8836e+08
    5.6535 2.9335e+08
    5.6659 2.9839e+08
    5.6783 3.0351e+08
    5.6907  3.087e+08
    5.7031 3.1395e+08
    5.7155 3.1928e+08
    5.7279 3.2468e+08
    5.7403 3.3015e+08
    5.7527 3.3569e+08
    5.7651  3.413e+08
    5.7775 3.4699e+08
    5.7899 3.5275e+08
    5.8023 3.5858e+08
    5.8147  3.645e+08
    5.8271 3.7048e+08
    5.8395 3.7655e+08
    5.8519 3.8269e+08
    5.8643 3.8891e+08
    5.8767 3.9521e+08
    5.8891 4.0159e+08
    5.9015 4.0805e+08
    5.9139 4.1459e+08
    5.9263 4.2122e+08
    5.9387 4.2792e+08
    5.9511 4.3471e+08
    5.9635 4.4158e+08
    5.9759 4.4854e+08
    5.9883 4.5558e+08
    6.0007 4.6271e+08
    6.0131 4.6992e+08
    6.0255 4.7723e+08
    6.0379 4.8462e+08
    6.0503  4.921e+08
    6.0627 4.9967e+08
    6.0751 5.0733e+08
    6.0875 5.1508e+08
    6.0999 5.2293e+08
    6.1123 5.3086e+08
    6.1247 5.3889e+08
    6.1371 5.4701e+08
    6.1495 5.5523e+08
    6.1619 5.6355e+08
    6.1743 5.7196e+08
    6.1867 5.8046e+08
    6.1991 5.8907e+08
    6.2115 5.9778e+08
    6.2239 6.0658e+08
    6.2363 6.1549e+08
    6.2487 6.2449e+08
    6.2611  6.336e+08
    6.2735 6.4281e+08
    6.2859 6.5212e+08
    6.2983 6.6154e+08
    6.3107 6.7106e+08
     6.323 6.8069e+08
    6.3354 6.9043e+08
    6.3478 7.0027e+08
    6.3602 7.1022e+08
    6.3726 7.2028e+08
     6.385 7.3045e+08
    6.3974 7.4073e+08
    6.4098 7.5112e+08
    6.4222 7.6162e+08
    6.4346 7.7224e+08
     6.447 7.8297e+08
    6.4594 7.9382e+08
    6.4718 8.0478e+08
    6.4842 8.1586e+08
    6.4966 8.2705e+08
     6.509 8.3836e+08
    6.5214 8.4979e+08
    6.5338 8.6134e+08
    6.5462 8.7302e+08
    6.5586  8.848e+08
     6.571 8.9671e+08
    6.5834 9.0875e+08
    6.5958 9.2092e+08
    6.6082  9.332e+08
    6.6206 9.4561e+08
     6.633 9.5815e+08
    6.6454 9.7081e+08
    6.6578  9.836e+08
    6.6702 9.9652e+08
    6.6826 1.0096e+09
     6.695 1.0228e+09
    6.7074 1.0361e+09
    6.7198 1.0495e+09
    6.7322 1.0631e+09
    6.7446 1.0768e+09
     6.757 1.0906e+09
    6.7694 1.1046e+09
    6.7818 1.1188e+09
    6.7942  1.133e+09
    6.8066 1.1474e+09
     6.819 1.1619e+09
    6.8314 1.1766e+09
    6.8438 1.1914e+09
    6.8562 1.2064e+09
    6.8686 1.2215e+09
     6.881 1.2367e+09
    6.8934 1.2521e+09
    6.9058 1.2676e+09
    6.9182 1.2833e+09
    6.9306 1.2991e+09
     6.943 1.3151e+09
    6.9554 1.3312e+09
    6.9678 1.3475e+09
    6.9801 1.3639e+09
    6.9925 1.3805e+09
    7.0049 1.3972e+09
    7.0173 1.4141e+09
    7.0297 1.4312e+09
    7.0421 1.4483e+09
    7.0545 1.4657e+09
    7.0669 1.4832e+09
    7.0793 1.5009e+09
    7.0917 1.5187e+09
    7.1041 1.5367e+09
    7.1165 1.5548e+09
    7.1289 1.5731e+09
    7.1413 1.5916e+09
    7.1537 1.6102e+09
    7.1661  1.629e+09
    7.1785 1.6479e+09
    7.1909 1.6671e+09
    7.2033 1.6864e+09
    7.2157 1.7058e+09
    7.2281 1.7255e+09
    7.2405 1.7453e+09
    7.2529 1.7652e+09
    7.2653 1.7854e+09
    7.2777 1.8057e+09
    7.2901 1.8262e+09
    7.3025 1.8468e+09
    7.3149 1.8677e+09
    7.3273 1.8887e+09
    7.3397 1.9099e+09
    7.3521 1.9312e+09
    7.3645 1.9528e+09
    7.3769 1.9745e+09
    7.3893 1.9964e+09
    7.4017 2.0185e+09
    7.4141 2.0408e+09
    7.4265 2.0633e+09
    7.4389 2.0859e+09
    7.4513 2.1087e+09
    7.4637 2.1317e+09
    7.4761  2.155e+09
    7.4885 2.1783e+09
    7.5009 2.2019e+09
    7.5133 2.2257e+09
    7.5257 2.2497e+09
    7.5381 2.2738e+09
    7.5505 2.2982e+09
    7.5629 2.3227e+09
    7.5753 2.3475e+09
    7.5877 2.3724e+09
    7.6001 2.3975e+09
    7.6125 2.4229e+09
    7.6249 2.4484e+09
    7.6373 2.4741e+09
    7.6496 2.5001e+09
     7.662 2.5262e+09
    7.6744 2.5525e+09
    7.6868 2.5791e+09
    7.6992 2.6058e+09
    7.7116 2.6328e+09
     7.724 2.6599e+09
    7.7364 2.6873e+09
    7.7488 2.7149e+09
    7.7612 2.7427e+09
    7.7736 2.7707e+09
     7.786 2.7989e+09
    7.7984 2.8273e+09
    7.8108 2.8559e+09
    7.8232 2.8848e+09
    7.8356 2.9138e+09
     7.848 2.9431e+09
    7.8604 2.9726e+09
    7.8728 3.0023e+09
    7.8852 3.0323e+09
    7.8976 3.0624e+09
      7.91 3.0928e+09
    7.9224 3.1234e+09
    7.9348 3.1542e+09
    7.9472 3.1853e+09
    7.9596 3.2166e+09
     7.972 3.2481e+09
    7.9844 3.2798e+09
    7.9968 3.3117e+09
    8.0092 3.3439e+09
    8.0216 3.3763e+09
     8.034  3.409e+09
    8.0464 3.4419e+09
    8.0588  3.475e+09
    8.0712 3.5083e+09
    8.0836 3.5419e+09
     8.096 3.5757e+09
    8.1084 3.6098e+09
    8.1208  3.644e+09
    8.1332 3.6786e+09
    8.1456 3.7134e+09
     8.158 3.7484e+09
    8.1704 3.7836e+09
    8.1828 3.8191e+09
    8.1952 3.8548e+09
    8.2076 3.8908e+09
      8.22 3.9271e+09
    8.2324 3.9635e+09
    8.2448 4.0002e+09
    8.2572 4.0372e+09
    8.2696 4.0744e+09
     8.282 4.1119e+09
    8.2944 4.1496e+09
    8.3067 4.1876e+09
    8.3191 4.2258e+09
    8.3315 4.2643e+09
    8.3439 4.3031e+09
    8.3563 4.3421e+09
    8.3687 4.3813e+09
    8.3811 4.4208e+09
    8.3935 4.4606e+09
    8.4059 4.5006e+09
    8.4183 4.5409e+09
    8.4307 4.5815e+09
    8.4431 4.6223e+09
    8.4555 4.6634e+09
    8.4679 4.7048e+09
    8.4803 4.7464e+09
    8.4927 4.7882e+09
    8.5051 4.8304e+09
    8.5175 4.8728e+09
    8.5299 4.9155e+09
    8.5423 4.9585e+09
    8.5547 5.0017e+09
    8.5671 5.0452e+09
    8.5795  5.089e+09
    8.5919  5.133e+09
    8.6043 5.1774e+09
    8.6167  5.222e+09
    8.6291 5.2668e+09
    8.6415  5.312e+09
    8.6539 5.3575e+09
    8.6663 5.4032e+09
    8.6787 5.4492e+09
    8.6911 5.4955e+09
    8.7035 5.5421e+09
    8.7159 5.5889e+09
    8.7283 5.6361e+09
    8.7407 5.6835e+09
    8.7531 5.7312e+09
    8.7655 5.7792e+09
    8.7779 5.8275e+09
    8.7903 5.8761e+09
    8.8027  5.925e+09
    8.8151 5.9742e+09
    8.8275 6.0236e+09
    8.8399 6.0733e+09
    8.8523 6.1234e+09
    8.8647 6.1738e+09
    8.8771 6.2244e+09
    8.8895 6.2753e+09
    8.9019 6.3266e+09
    8.9143 6.3781e+09
    8.9267   6.43e+09
    8.9391 6.4821e+09
    8.9515 6.5346e+09
    8.9639 6.5873e+09
    8.9762 6.6404e+09
    8.9886 6.6937e+09
     9.001 6.7474e+09
    9.0134 6.8014e+09
    9.0258 6.8557e+09
    9.0382 6.9103e+09
    9.0506 6.9652e+09
     9.063 7.0204e+09
    9.0754 7.0759e+09
    9.0878 7.1318e+09
    9.1002 7.1879e+09
    9.1126 7.2444e+09
     9.125 7.3012e+09
    9.1374 7.3583e+09
    9.1498 7.4157e+09
    9.1622 7.4735e+09
    9.1746 7.5315e+09
     9.187 7.5899e+09
    9.1994 7.6486e+09
    9.2118 7.7076e+09
    9.2242  7.767e+09
    9.2366 7.8267e+09
     9.249 7.8866e+09
    9.2614  7.947e+09
    9.2738 8.0076e+09
    9.2862 8.0687e+09
    9.2986 8.1299e+09
     9.311 8.1916e+09
    9.3234 8.2536e+09
    9.3358 8.3159e+09
    9.3482 8.3785e+09
    9.3606 8.4415e+09
     9.373 8.5048e+09
    9.3854 8.5684e+09
    9.3978 8.6324e+09
    9.4102 8.6967e+09
    9.4226 8.7614e+09
     9.435 8.8264e+09
    9.4474 8.8918e+09
    9.4598 8.9574e+09
    9.4722 9.0234e+09
    9.4846 9.0898e+09
     9.497 9.1565e+09
    9.5094 9.2235e+09
    9.5218 9.2909e+09
    9.5342 9.3587e+09
    9.5466 9.4268e+09
     9.559 9.4952e+09
    9.5714  9.564e+09
    9.5838 9.6332e+09
    9.5962 9.7026e+09
    9.6086 9.7725e+09
     9.621 9.8427e+09
    9.6333 9.9132e+09
    9.6457 9.9841e+09
    9.6581 1.0055e+10
    9.6705 1.0127e+10
    9.6829 1.0199e+10
    9.6953 1.0271e+10
    9.7077 1.0344e+10
    9.7201 1.0417e+10
    9.7325  1.049e+10
    9.7449 1.0564e+10
    9.7573 1.0638e+10
    9.7697 1.0713e+10
    9.7821 1.0788e+10
    9.7945 1.0863e+10
    9.8069 1.0939e+10
    9.8193 1.1015e+10
    9.8317 1.1091e+10
    9.8441 1.1168e+10
    9.8565 1.1245e+10
    9.8689 1.1322e+10
    9.8813   1.14e+10
    9.8937 1.1478e+10
    9.9061 1.1557e+10
    9.9185 1.1636e+10
    9.9309 1.1715e+10
    9.9433 1.1795e+10
    9.9557 1.1875e+10
    9.9681 1.1955e+10
    9.9805 1.2036e+10
    9.9929 1.2117e+10
    10.005 1.2199e+10
    10.018 1.2281e+10
     10.03 1.2363e+10
    10.042 1.2446e+10
    10.055 1.2529e+10
    10.067 1.2612e+10
     10.08 1.2696e+10
    10.092 1.2781e+10
    10.104 1.2865e+10
    10.117  1.295e+10
    10.129 1.3036e+10
    10.142 1.3121e+10
    10.154 1.3208e+10
    10.166 1.3294e+10
    10.179 1.3381e+10
    10.191 1.3469e+10
    10.204 1.3556e+10
    10.216 1.3645e+10
    10.228 1.3733e+10
    10.241 1.3822e+10
    10.253 1.3911e+10
    10.266 1.4001e+10
    10.278 1.4091e+10
     10.29 1.4182e+10
    10.303 1.4273e+10
    10.315 1.4364e+10
    10.328 1.4456e+10
     10.34 1.4548e+10
    10.352 1.4641e+10
    10.365 1.4734e+10
    10.377 1.4827e+10
     10.39 1.4921e+10
    10.402 1.5015e+10
    10.414  1.511e+10
    10.427 1.5205e+10
    10.439   1.53e+10
    10.452 1.5396e+10
    10.464 1.5492e+10
    10.476 1.5589e+10
    10.489 1.5686e+10
    10.501 1.5783e+10
    10.514 1.5881e+10
    10.526  1.598e+10
    10.538 1.6078e+10
    10.551 1.6177e+10
    10.563 1.6277e+10
    10.576 1.6377e+10
    10.588 1.6477e+10
      10.6 1.6578e+10
    10.613 1.6679e+10
    10.625 1.6781e+10
    10.638 1.6883e+10
     10.65 1.6985e+10
    10.662 1.7088e+10
    10.675 1.7192e+10
    10.687 1.7296e+10
      10.7   1.74e+10
    10.712 1.7504e+10
    10.724 1.7609e+10
    10.737 1.7715e+10
    10.749 1.7821e+10
    10.762 1.7927e+10
    10.774 1.8034e+10
    10.786 1.8141e+10
    10.799 1.8249e+10
    10.811 1.8357e+10
    10.824 1.8465e+10
    10.836 1.8574e+10
    10.848 1.8684e+10
    10.861 1.8793e+10
    10.873 1.8904e+10
    10.886 1.9014e+10
    10.898 1.9125e+10
     10.91 1.9237e+10
    10.923 1.9349e+10
    10.935 1.9461e+10
    10.948 1.9574e+10
     10.96 1.9687e+10
    10.972 1.9801e+10
    10.985 1.9915e+10
    10.997  2.003e+10
     11.01 2.0145e+10
    11.022 2.0261e+10
    11.034 2.0376e+10
    11.047 2.0493e+10
    11.059  2.061e+10
    11.072 2.0727e+10
    11.084 2.0845e+10
    11.096 2.0963e+10
    11.109 2.1082e+10
    11.121 2.1201e+10
    11.134  2.132e+10
    11.146  2.144e+10
    11.158 2.1561e+10
    11.171 2.1682e+10
    11.183 2.1803e+10
    11.196 2.1925e+10
    11.208 2.2047e+10
     11.22  2.217e+10
    11.233 2.2293e+10
    11.245 2.2417e+10
    11.258 2.2541e+10
     11.27 2.2665e+10
    11.282  2.279e+10
    11.295 2.2916e+10
    11.307 2.3042e+10
    11.319 2.3168e+10
    11.332 2.3295e+10
    11.344 2.3423e+10
    11.357  2.355e+10
    11.369 2.3679e+10
    11.381 2.3807e+10
    11.394 2.3936e+10
    11.406 2.4066e+10
    11.419 2.4196e+10
    11.431 2.4327e+10
    11.443 2.4458e+10
    11.456 2.4589e+10
    11.468 2.4721e+10
    11.481 2.4854e+10
    11.493 2.4987e+10
    11.505  2.512e+10
    11.518 2.5254e+10
     11.53 2.5389e+10
    11.543 2.5523e+10
    11.555 2.5659e+10
    11.567 2.5794e+10
     11.58 2.5931e+10
    11.592 2.6067e+10
    11.605 2.6204e+10
    11.617 2.6342e+10
    11.629  2.648e+10
    11.642 2.6619e+10
    11.654 2.6758e+10
    11.667 2.6898e+10
    11.679 2.7038e+10
    11.691 2.7178e+10
    11.704 2.7319e+10
    11.716 2.7461e+10
    11.729 2.7603e+10
    11.741 2.7745e+10
    11.753 2.7888e+10
    11.766 2.8032e+10
    11.778 2.8176e+10
    11.791  2.832e+10
    11.803 2.8465e+10
    11.815  2.861e+10
    11.828 2.8756e+10
     11.84 2.8903e+10
    11.853 2.9049e+10
    11.865 2.9197e+10
    11.877 2.9345e+10
     11.89 2.9493e+10
    11.902 2.9642e+10
    11.915 2.9791e+10
    11.927 2.9941e+10
    11.939 3.0091e+10
    11.952 3.0242e+10
    11.964 3.0393e+10
    11.977 3.0545e+10
    11.989 3.0697e+10
    12.001  3.085e+10
    12.014 3.1003e+10
    12.026 3.1157e+10
    12.039 3.1311e+10
    12.051 3.1466e+10
    12.063 3.1621e+10
    12.076 3.1777e+10
    12.088 3.1933e+10
    12.101  3.209e+10
    12.113 3.2247e+10
    12.125 3.2405e+10
    12.138 3.2563e+10
     12.15 3.2722e+10
    12.163 3.2881e+10
    12.175 3.3041e+10
    12.187 3.3201e+10
      12.2 3.3362e+10
    12.212 3.3523e+10
    12.225 3.3685e+10
    12.237 3.3847e+10
    12.249  3.401e+10
    12.262 3.4173e+10
    12.274 3.4337e+10
    12.287 3.4501e+10
    12.299 3.4666e+10
    12.311 3.4831e+10
    12.324 3.4997e+10
    12.336 3.5163e+10
    12.349  3.533e+10
    12.361 3.5498e+10
    12.373 3.5666e+10
    12.386 3.5834e+10
    12.398 3.6003e+10
    12.411 3.6172e+10
    12.423 3.6342e+10
    12.435 3.6513e+10
    12.448 3.6683e+10
     12.46 3.6855e+10
    12.473 3.7027e+10
    12.485 3.7199e+10
    12.497 3.7372e+10
     12.51 3.7546e+10
    12.522  3.772e+10
    12.535 3.7895e+10
    12.547 3.8069e+10
    12.559 3.8245e+10
    12.572 3.8421e+10
    12.584 3.8598e+10
    12.597 3.8775e+10
    12.609 3.8953e+10
    12.621 3.9131e+10
    12.634  3.931e+10
    12.646 3.9489e+10
    12.658 3.9669e+10
    12.671 3.9849e+10
    12.683  4.003e+10
    12.696 4.0211e+10
    12.708 4.0393e+10
     12.72 4.0575e+10
    12.733 4.0758e+10
    12.745 4.0941e+10
    12.758 4.1125e+10
     12.77  4.131e+10
    12.782 4.1495e+10
    12.795  4.168e+10
    12.807 4.1866e+10
     12.82 4.2053e+10
    12.832  4.224e+10
    12.844 4.2428e+10
    12.857 4.2616e+10
    12.869 4.2805e+10
    12.882 4.2994e+10
    12.894 4.3183e+10
    12.906 4.3374e+10
    12.919 4.3565e+10
    12.931 4.3756e+10
    12.944 4.3948e+10
    12.956  4.414e+10
    12.968 4.4333e+10
    12.981 4.4527e+10
    12.993 4.4721e+10
    13.006 4.4915e+10
    13.018  4.511e+10
     13.03 4.5306e+10
    13.043 4.5502e+10
    13.055 4.5699e+10
    13.068 4.5896e+10
     13.08 4.6093e+10
    13.092 4.6292e+10
    13.105 4.6491e+10
    13.117  4.669e+10
     13.13  4.689e+10
    13.142 4.7091e+10
    13.154 4.7291e+10
    13.167 4.7493e+10
    13.179 4.7695e+10
    13.192 4.7897e+10
    13.204 4.8101e+10
    13.216 4.8304e+10
    13.229 4.8509e+10
    13.241 4.8713e+10
    13.254 4.8919e+10
    13.266 4.9124e+10
    13.278 4.9331e+10
    13.291 4.9538e+10
    13.303 4.9745e+10
    13.316 4.9953e+10
    13.328 5.0162e+10
     13.34 5.0371e+10
    13.353  5.058e+10
    13.365 5.0791e+10
    13.378 5.1001e+10
     13.39 5.1213e+10
    13.402 5.1424e+10
    13.415 5.1637e+10
    13.427  5.185e+10
     13.44 5.2063e+10
    13.452 5.2277e+10
    13.464 5.2492e+10
    13.477 5.2707e+10
    13.489 5.2922e+10
    13.502 5.3139e+10
    13.514 5.3355e+10
    13.526 5.3573e+10
    13.539  5.379e+10
    13.551 5.4009e+10
    13.564 5.4228e+10
    13.576 5.4447e+10
    13.588 5.4667e+10
    13.601 5.4888e+10
    13.613 5.5109e+10
    13.626 5.5331e+10
    13.638 5.5553e+10
     13.65 5.5776e+10
    13.663 5.5999e+10
    13.675 5.6223e+10
    13.688 5.6448e+10
      13.7 5.6673e+10
    13.712 5.6898e+10
    13.725 5.7124e+10
    13.737 5.7351e+10
     13.75 5.7578e+10
    13.762 5.7806e+10
    13.774 5.8034e+10
    13.787 5.8263e+10
    13.799 5.8492e+10
    13.812 5.8722e+10
    13.824 5.8953e+10
    13.836 5.9184e+10
    13.849 5.9416e+10
    13.861 5.9648e+10
    13.874 5.9881e+10
    13.886 6.0114e+10
    13.898 6.0348e+10
    13.911 6.0582e+10
    13.923 6.0817e+10
    13.936 6.1053e+10
    13.948 6.1289e+10
     13.96 6.1526e+10
    13.973 6.1763e+10
    13.985 6.2001e+10
    13.997 6.2239e+10
     14.01 6.2478e+10
    14.022 6.2717e+10
    14.035 6.2957e+10
    14.047 6.3198e+10
    14.059 6.3439e+10
    14.072 6.3681e+10
    14.084 6.3923e+10
    14.097 6.4166e+10
    14.109 6.4409e+10
    14.121 6.4653e+10
    14.134 6.4898e+10
    14.146 6.5143e+10
    14.159 6.5388e+10
    14.171 6.5635e+10
    14.183 6.5881e+10
    14.196 6.6129e+10
    14.208 6.6377e+10
    14.221 6.6625e+10
    14.233 6.6874e+10
    14.245 6.7124e+10
    14.258 6.7374e+10
     14.27 6.7624e+10
    14.283 6.7876e+10
    14.295 6.8128e+10
    14.307  6.838e+10
     14.32 6.8633e+10
    14.332 6.8887e+10
    14.345 6.9141e+10
    14.357 6.9395e+10
    14.369 6.9651e+10
    14.382 6.9906e+10
    14.394 7.0163e+10
    14.407  7.042e+10
    14.419 7.0677e+10
    14.431 7.0935e+10
    14.444 7.1194e+10
    14.456 7.1453e+10
    14.469 7.1713e+10
    14.481 7.1973e+10
    14.493 7.2234e+10
    14.506 7.2496e+10
    14.518 7.2757e+10
    14.531  7.302e+10
    14.543 7.3283e+10
    14.555 7.3547e+10
    14.568 7.3811e+10
     14.58 7.4076e+10
    14.593 7.4342e+10
    14.605 7.4608e+10
    14.617 7.4874e+10
     14.63 7.5141e+10
    14.642 7.5409e+10
    14.655 7.5677e+10
    14.667 7.5946e+10
    14.679 7.6216e+10
    14.692 7.6486e+10
    14.704 7.6756e+10
    14.717 7.7028e+10
    14.729 7.7299e+10
    14.741 7.7572e+10
    14.754 7.7844e+10
    14.766 7.8118e+10
    14.779 7.8392e+10
    14.791 7.8666e+10
    14.803 7.8941e+10
    14.816 7.9217e+10
    14.828 7.9493e+10
    14.841  7.977e+10
    14.853 8.0048e+10
    14.865 8.0326e+10
    14.878 8.0604e+10
     14.89 8.0883e+10
    14.903 8.1163e+10
    14.915 8.1443e+10
    14.927 8.1724e+10
     14.94 8.2006e+10
    14.952 8.2288e+10
    14.965  8.257e+10
    14.977 8.2854e+10
    14.989 8.3137e+10
    15.002 8.3421e+10
    15.014 8.3706e+10
    15.027 8.3992e+10
    15.039 8.4278e+10
    15.051 8.4564e+10
    15.064 8.4851e+10
    15.076 8.5139e+10
    15.089 8.5428e+10
    15.101 8.5716e+10
    15.113 8.6006e+10
    15.126 8.6296e+10
    15.138 8.6586e+10
    15.151 8.6878e+10
    15.163 8.7169e+10
    15.175 8.7462e+10
    15.188 8.7755e+10
      15.2 8.8048e+10
    15.213 8.8342e+10
    15.225 8.8637e+10
    15.237 8.8932e+10
     15.25 8.9228e+10
    15.262 8.9524e+10
    15.275 8.9821e+10
    15.287 9.0119e+10
    15.299 9.0417e+10
    15.312 9.0716e+10
    15.324 9.1015e+10
    15.336 9.1314e+10
    15.349 9.1615e+10
    15.361 9.1916e+10
    15.374 9.2217e+10
    15.386 9.2519e+10
    15.398 9.2822e+10
    15.411 9.3125e+10
    15.423 9.3429e+10
    15.436 9.3733e+10
    15.448 9.4038e+10
     15.46 9.4344e+10
    15.473  9.465e+10
    15.485 9.4957e+10
    15.498 9.5264e+10
     15.51 9.5572e+10
    15.522 9.5881e+10
    15.535 9.6189e+10
    15.547 9.6499e+10
     15.56  9.681e+10
    15.572  9.712e+10
    15.584 9.7431e+10
    15.597 9.7743e+10
    15.609 9.8056e+10
    15.622 9.8369e+10
    15.634 9.8683e+10
    15.646 9.8996e+10
    15.659 9.9311e+10
    15.671 9.9627e+10
    15.684 9.9943e+10
    15.696 1.0026e+11
    15.708 1.0058e+11
    15.721 1.0089e+11
    15.733 1.0121e+11
    15.746 1.0153e+11
    15.758 1.0185e+11
     15.77 1.0217e+11
    15.783 1.0249e+11
    15.795 1.0281e+11
    15.808 1.0313e+11
     15.82 1.0346e+11
    15.832 1.0378e+11
    15.845  1.041e+11
    15.857 1.0443e+11
     15.87 1.0475e+11
    15.882 1.0508e+11
    15.894  1.054e+11
    15.907 1.0573e+11
    15.919 1.0605e+11
    15.932 1.0638e+11
    15.944 1.0671e+11
    15.956 1.0704e+11
    15.969 1.0737e+11
    15.981  1.077e+11
    15.994 1.0803e+11
    16.006 1.0836e+11
    16.018 1.0869e+11
    16.031 1.0902e+11
    16.043 1.0936e+11
    16.056 1.0969e+11
    16.068 1.1002e+11
     16.08 1.1036e+11
    16.093 1.1069e+11
    16.105 1.1103e+11
    16.118 1.1136e+11
     16.13  1.117e+11
    16.142 1.1204e+11
    16.155 1.1238e+11
    16.167 1.1271e+11
     16.18 1.1305e+11
    16.192 1.1339e+11
    16.204 1.1373e+11
    16.217 1.1407e+11
    16.229 1.1441e+11
    16.242 1.1476e+11
    16.254  1.151e+11
    16.266 1.1544e+11
    16.279 1.1579e+11
    16.291 1.1613e+11
    16.304 1.1648e+11
    16.316 1.1682e+11
    16.328 1.1717e+11
    16.341 1.1751e+11
    16.353 1.1786e+11
    16.366 1.1821e+11
    16.378 1.1856e+11
     16.39  1.189e+11
    16.403 1.1925e+11
    16.415  1.196e+11
    16.428 1.1995e+11
     16.44 1.2031e+11
    16.452 1.2066e+11
    16.465 1.2101e+11
    16.477 1.2136e+11
     16.49 1.2172e+11
    16.502 1.2207e+11
    16.514 1.2242e+11
    16.527 1.2278e+11
    16.539 1.2313e+11
    16.552 1.2349e+11
    16.564 1.2385e+11
    16.576 1.2421e+11
    16.589 1.2456e+11
    16.601 1.2492e+11
    16.613 1.2528e+11
    16.626 1.2564e+11
    16.638   1.26e+11
    16.651 1.2636e+11
    16.663 1.2672e+11
    16.675 1.2709e+11
    16.688 1.2745e+11
      16.7 1.2781e+11
    16.713 1.2818e+11
    16.725 1.2854e+11
    16.737  1.289e+11
     16.75 1.2927e+11
    16.762 1.2964e+11
    16.775    1.3e+11
    16.787 1.3037e+11
    16.799 1.3074e+11
    16.812 1.3111e+11
    16.824 1.3147e+11
    16.837 1.3184e+11
    16.849 1.3221e+11
    16.861 1.3258e+11
    16.874 1.3296e+11
    16.886 1.3333e+11
    16.899  1.337e+11
    16.911 1.3407e+11
    16.923 1.3445e+11
    16.936 1.3482e+11
    16.948  1.352e+11
    16.961 1.3557e+11
    16.973 1.3595e+11
    16.985 1.3632e+11
    16.998  1.367e+11
     17.01 1.3708e+11
    17.023 1.3745e+11
    17.035 1.3783e+11
    17.047 1.3821e+11
     17.06 1.3859e+11
    17.072 1.3897e+11
    17.085 1.3935e+11
    17.097 1.3973e+11
    17.109 1.4012e+11
    17.122  1.405e+11
    17.134 1.4088e+11
    17.147 1.4127e+11
    17.159 1.4165e+11
    17.171 1.4204e+11
    17.184 1.4242e+11
    17.196 1.4281e+11
    17.209 1.4319e+11
    17.221 1.4358e+11
    17.233 1.4397e+11
    17.246 1.4436e+11
    17.258 1.4475e+11
    17.271 1.4514e+11
    17.283 1.4553e+11
    17.295 1.4592e+11
    17.308 1.4631e+11
     17.32  1.467e+11
    17.333 1.4709e+11
    17.345 1.4748e+11
    17.357 1.4788e+11
     17.37 1.4827e+11
    17.382 1.4867e+11
    17.395 1.4906e+11
    17.407 1.4946e+11
    17.419 1.4985e+11
    17.432 1.5025e+11
    17.444 1.5065e+11
    17.457 1.5105e+11
    17.469 1.5144e+11
    17.481 1.5184e+11
    17.494 1.5224e+11
    17.506 1.5264e+11
    17.519 1.5304e+11
    17.531 1.5344e+11
    17.543 1.5385e+11
    17.556 1.5425e+11
    17.568 1.5465e+11
    17.581 1.5506e+11
    17.593 1.5546e+11
    17.605 1.5586e+11
    17.618 1.5627e+11
     17.63 1.5668e+11
    17.643 1.5708e+11
    17.655 1.5749e+11
    17.667  1.579e+11
     17.68 1.5831e+11
    17.692 1.5871e+11
    17.705 1.5912e+11
    17.717 1.5953e+11
    17.729 1.5994e+11
    17.742 1.6035e+11
    17.754 1.6077e+11
    17.767 1.6118e+11
    17.779 1.6159e+11
    17.791   1.62e+11
    17.804 1.6242e+11
    17.816 1.6283e+11
    17.829 1.6325e+11
    17.841 1.6366e+11
    17.853 1.6408e+11
    17.866 1.6449e+11
    17.878 1.6491e+11
    17.891 1.6533e+11
    17.903 1.6575e+11
    17.915 1.6617e+11
    17.928 1.6659e+11
     17.94 1.6701e+11
    17.952 1.6743e+11
    17.965 1.6785e+11
    17.977 1.6827e+11
     17.99 1.6869e+11
    18.002 1.6911e+11
    18.014 1.6954e+11
    18.027 1.6996e+11
    18.039 1.7039e+11
    18.052 1.7081e+11
    18.064 1.7124e+11
    18.076 1.7166e+11
    18.089 1.7209e+11
    18.101 1.7252e+11
    18.114 1.7294e+11
    18.126 1.7337e+11
    18.138  1.738e+11
    18.151 1.7423e+11
    18.163 1.7466e+11
    18.176 1.7509e+11
    18.188 1.7552e+11
      18.2 1.7595e+11
    18.213 1.7639e+11
    18.225 1.7682e+11
    18.238 1.7725e+11
     18.25 1.7769e+11
    18.262 1.7812e+11
    18.275 1.7856e+11
    18.287 1.7899e+11
      18.3 1.7943e+11
    18.312 1.7986e+11
    18.324  1.803e+11
    18.337 1.8074e+11
    18.349 1.8118e+11
    18.362 1.8162e+11
    18.374 1.8206e+11
    18.386 1.8249e+11
    18.399 1.8294e+11
    18.411 1.8338e+11
    18.424 1.8382e+11
    18.436 1.8426e+11
    18.448  1.847e+11
    18.461 1.8515e+11
    18.473 1.8559e+11
    18.486 1.8603e+11
    18.498 1.8648e+11
     18.51 1.8692e+11
    18.523 1.8737e+11
    18.535 1.8782e+11
    18.548 1.8826e+11
     18.56 1.8871e+11
    18.572 1.8916e+11
    18.585 1.8961e+11
    18.597 1.9006e+11
     18.61 1.9051e+11
    18.622 1.9096e+11
    18.634 1.9141e+11
    18.647 1.9186e+11
    18.659 1.9231e+11
    18.672 1.9277e+11
    18.684 1.9322e+11
    18.696 1.9367e+11
    18.709 1.9413e+11
    18.721 1.9458e+11
    18.734 1.9504e+11
    18.746 1.9549e+11
    18.758 1.9595e+11
    18.771 1.9641e+11
    18.783 1.9686e+11
    18.796 1.9732e+11
    18.808 1.9778e+11
     18.82 1.9824e+11
    18.833  1.987e+11
    18.845 1.9916e+11
    18.858 1.9962e+11
     18.87 2.0008e+11
    18.882 2.0054e+11
    18.895 2.0101e+11
    18.907 2.0147e+11
     18.92 2.0193e+11
    18.932  2.024e+11
    18.944 2.0286e+11
    18.957 2.0333e+11
    18.969 2.0379e+11
    18.982 2.0426e+11
    18.994 2.0472e+11
    19.006 2.0519e+11
    19.019 2.0566e+11
    19.031 2.0613e+11
    19.044  2.066e+11
    19.056 2.0707e+11
    19.068 2.0754e+11
    19.081 2.0801e+11
    19.093 2.0848e+11
    19.106 2.0895e+11
    19.118 2.0942e+11
     19.13 2.0989e+11
    19.143 2.1037e+11
    19.155 2.1084e+11
    19.168 2.1132e+11
     19.18 2.1179e+11
    19.192 2.1227e+11
    19.205 2.1274e+11
    19.217 2.1322e+11
     19.23  2.137e+11
    19.242 2.1417e+11
    19.254 2.1465e+11
    19.267 2.1513e+11
    19.279 2.1561e+11
    19.291 2.1609e+11
    19.304 2.1657e+11
    19.316 2.1705e+11
    19.329 2.1753e+11
    19.341 2.1801e+11
    19.353 2.1849e+11
    19.366 2.1898e+11
    19.378 2.1946e+11
    19.391 2.1995e+11
    19.403 2.2043e+11
    19.415 2.2091e+11
    19.428  2.214e+11
     19.44 2.2189e+11
    19.453 2.2237e+11
    19.465 2.2286e+11
    19.477 2.2335e+11
     19.49 2.2384e+11
    19.502 2.2432e+11
    19.515 2.2481e+11
    19.527  2.253e+11
    19.539 2.2579e+11
    19.552 2.2628e+11
    19.564 2.2678e+11
    19.577 2.2727e+11
    19.589 2.2776e+11
    19.601 2.2825e+11
    19.614 2.2875e+11
    19.626 2.2924e+11
    19.639 2.2973e+11
    19.651 2.3023e+11
    19.663 2.3073e+11
    19.676 2.3122e+11
    19.688 2.3172e+11
    19.701 2.3222e+11
    19.713 2.3271e+11
    19.725 2.3321e+11
    19.738 2.3371e+11
     19.75 2.3421e+11
    19.763 2.3471e+11
    19.775 2.3521e+11
    19.787 2.3571e+11
      19.8 2.3621e+11
    19.812 2.3671e+11
    19.825 2.3722e+11
    19.837 2.3772e+11
    19.849 2.3822e+11
    19.862 2.3873e+11
    19.874 2.3923e+11
    19.887 2.3974e+11
    19.899 2.4024e+11
    19.911 2.4075e+11
    19.924 2.4125e+11
    19.936 2.4176e+11
    19.949 2.4227e+11
    19.961 2.4278e+11
    19.973 2.4329e+11
    19.986 2.4379e+11
    19.998  2.443e+11
    20.011 2.4481e+11
    20.023 2.4533e+11
    20.035 2.4584e+11
    20.048 2.4635e+11
     20.06 2.4686e+11
    20.073 2.4737e+11
    20.085 2.4789e+11
    20.097  2.484e+11
     20.11 2.4891e+11
    20.122 2.4943e+11
    20.135 2.4994e+11
    20.147 2.5046e+11
    20.159 2.5098e+11
    20.172 2.5149e+11
    20.184 2.5201e+11
    20.197 2.5253e+11
    20.209 2.5305e+11
    20.221 2.5357e+11
    20.234 2.5409e+11
    20.246 2.5461e+11
    20.259 2.5513e+11
    20.271 2.5565e+11
    20.283 2.5617e+11
    20.296 2.5669e+11
    20.308 2.5721e+11
    20.321 2.5774e+11
    20.333 2.5826e+11
    20.345 2.5878e+11
    20.358 2.5931e+11
     20.37 2.5983e+11
    20.383 2.6036e+11
    20.395 2.6089e+11
    20.407 2.6141e+11
     20.42 2.6194e+11
    20.432 2.6247e+11
    20.445 2.6299e+11
    20.457 2.6352e+11
    20.469 2.6405e+11
    20.482 2.6458e+11
    20.494 2.6511e+11
    20.507 2.6564e+11
    20.519 2.6617e+11
    20.531  2.667e+11
    20.544 2.6724e+11
    20.556 2.6777e+11
    20.569  2.683e+11
    20.581 2.6884e+11
    20.593 2.6937e+11
    20.606 2.6991e+11
    20.618 2.7044e+11
     20.63 2.7098e+11
    20.643 2.7151e+11
    20.655 2.7205e+11
    20.668 2.7259e+11
     20.68 2.7313e+11
    20.692 2.7366e+11
    20.705  2.742e+11
    20.717 2.7474e+11
     20.73 2.7528e+11
    20.742 2.7582e+11
    20.754 2.7636e+11
    20.767  2.769e+11
    20.779 2.7744e+11
    20.792 2.7799e+11
    20.804 2.7853e+11
    20.816 2.7907e+11
    20.829 2.7962e+11
    20.841 2.8016e+11
    20.854 2.8071e+11
    20.866 2.8125e+11
    20.878  2.818e+11
    20.891 2.8234e+11
    20.903 2.8289e+11
    20.916 2.8344e+11
    20.928 2.8398e+11
     20.94 2.8453e+11
    20.953 2.8508e+11
    20.965 2.8563e+11
    20.978 2.8618e+11
     20.99 2.8673e+11
    21.002 2.8728e+11
    21.015 2.8783e+11
    21.027 2.8838e+11
     21.04 2.8893e+11
    21.052 2.8949e+11
    21.064 2.9004e+11
    21.077 2.9059e+11
    21.089 2.9115e+11
    21.102  2.917e+11
    21.114 2.9226e+11
    21.126 2.9281e+11
    21.139 2.9337e+11
    21.151 2.9393e+11
    21.164 2.9448e+11
    21.176 2.9504e+11
    21.188  2.956e+11
    21.201 2.9616e+11
    21.213 2.9672e+11
    21.226 2.9727e+11
    21.238 2.9783e+11
     21.25 2.9839e+11
    21.263 2.9896e+11
    21.275 2.9952e+11
    21.288 3.0008e+11
      21.3 3.0064e+11
    21.312 3.0121e+11
    21.325 3.0177e+11
    21.337 3.0233e+11
     21.35 3.0289e+11
    21.362 3.0346e+11
    21.374 3.0403e+11
    21.387 3.0459e+11
    21.399 3.0516e+11
    21.412 3.0572e+11
    21.424 3.0629e+11
    21.436 3.0686e+11
    21.449 3.0743e+11
    21.461   3.08e+11
    21.474 3.0856e+11
    21.486 3.0913e+11
    21.498  3.097e+11
    21.511 3.1028e+11
    21.523 3.1084e+11
    21.536 3.1142e+11
    21.548 3.1199e+11
     21.56 3.1256e+11
    21.573 3.1314e+11
    21.585 3.1371e+11
    21.598 3.1428e+11
     21.61 3.1486e+11
    21.622 3.1543e+11
    21.635 3.1601e+11
    21.647 3.1658e+11
     21.66 3.1716e+11
    21.672 3.1773e+11
    21.684 3.1831e+11
    21.697 3.1889e+11
    21.709 3.1947e+11
    21.722 3.2005e+11
    21.734 3.2063e+11
    21.746  3.212e+11
    21.759 3.2178e+11
    21.771 3.2236e+11
    21.784 3.2295e+11
    21.796 3.2353e+11
    21.808 3.2411e+11
    21.821 3.2469e+11
    21.833 3.2527e+11
    21.846 3.2586e+11
    21.858 3.2644e+11
     21.87 3.2703e+11
    21.883 3.2761e+11
    21.895  3.282e+11
    21.908 3.2878e+11
     21.92 3.2937e+11
    21.932 3.2995e+11
    21.945 3.3054e+11
    21.957 3.3113e+11
    21.969 3.3172e+11
    21.982 3.3231e+11
    21.994 3.3289e+11
    22.007 3.3348e+11
    22.019 3.3407e+11
    22.031 3.3466e+11
    22.044 3.3525e+11
    22.056 3.3585e+11
    22.069 3.3644e+11
    22.081 3.3703e+11
    22.093 3.3762e+11
    22.106 3.3821e+11
    22.118 3.3881e+11
    22.131  3.394e+11
    22.143    3.4e+11
    22.155 3.4059e+11
    22.168 3.4119e+11
     22.18 3.4178e+11
    22.193 3.4238e+11
    22.205 3.4298e+11
    22.217 3.4357e+11
     22.23 3.4417e+11
    22.242 3.4477e+11
    22.255 3.4537e+11
    22.267 3.4597e+11
    22.279 3.4657e+11
    22.292 3.4717e+11
    22.304 3.4777e+11
    22.317 3.4837e+11
    22.329 3.4897e+11
    22.341 3.4957e+11
    22.354 3.5017e+11
    22.366 3.5077e+11
    22.379 3.5138e+11
    22.391 3.5198e+11
    22.403 3.5259e+11
    22.416 3.5319e+11
    22.428 3.5379e+11
    22.441  3.544e+11
    22.453 3.5501e+11
    22.465 3.5561e+11
    22.478 3.5622e+11
     22.49 3.5683e+11
    22.503 3.5743e+11
    22.515 3.5804e+11
    22.527 3.5865e+11
     22.54 3.5926e+11
    22.552 3.5987e+11
    22.565 3.6048e+11
    22.577 3.6109e+11
    22.589  3.617e+11
    22.602 3.6231e+11
    22.614 3.6292e+11
    22.627 3.6353e+11
    22.639 3.6415e+11
    22.651 3.6476e+11
    22.664 3.6537e+11
    22.676 3.6599e+11
    22.689  3.666e+11
    22.701 3.6722e+11
    22.713 3.6783e+11
    22.726 3.6845e+11
    22.738 3.6906e+11
    22.751 3.6968e+11
    22.763  3.703e+11
    22.775 3.7091e+11
    22.788 3.7153e+11
      22.8 3.7215e+11
    22.813 3.7277e+11
    22.825 3.7339e+11
    22.837 3.7401e+11
     22.85 3.7463e+11
    22.862 3.7525e+11
    22.875 3.7587e+11
    22.887 3.7649e+11
    22.899 3.7711e+11
    22.912 3.7774e+11
    22.924 3.7836e+11
    22.937 3.7898e+11
    22.949 3.7961e+11
    22.961 3.8023e+11
    22.974 3.8085e+11
    22.986 3.8148e+11
    22.999  3.821e+11
    23.011 3.8273e+11
    23.023 3.8336e+11
    23.036 3.8398e+11
    23.048 3.8461e+11
    23.061 3.8524e+11
    23.073 3.8587e+11
    23.085 3.8649e+11
    23.098 3.8712e+11
     23.11 3.8775e+11
    23.123 3.8838e+11
    23.135 3.8901e+11
    23.147 3.8964e+11
     23.16 3.9027e+11
    23.172  3.909e+11
    23.185 3.9154e+11
    23.197 3.9217e+11
    23.209  3.928e+11
    23.222 3.9343e+11
    23.234 3.9407e+11
    23.247  3.947e+11
    23.259 3.9534e+11
    23.271 3.9597e+11
    23.284 3.9661e+11
    23.296 3.9724e+11
    23.308 3.9788e+11
    23.321 3.9852e+11
    23.333 3.9915e+11
    23.346 3.9979e+11
    23.358 4.0043e+11
     23.37 4.0106e+11
    23.383  4.017e+11
    23.395 4.0234e+11
    23.408 4.0298e+11
     23.42 4.0362e+11
    23.432 4.0426e+11
    23.445  4.049e+11
    23.457 4.0554e+11
     23.47 4.0619e+11
    23.482 4.0683e+11
    23.494 4.0747e+11
    23.507 4.0811e+11
    23.519 4.0876e+11
    23.532  4.094e+11
    23.544 4.1004e+11
    23.556 4.1069e+11
    23.569 4.1133e+11
    23.581 4.1198e+11
    23.594 4.1262e+11
    23.606 4.1327e+11
    23.618 4.1392e+11
    23.631 4.1456e+11
    23.643 4.1521e+11
    23.656 4.1586e+11
    23.668 4.1651e+11
     23.68 4.1716e+11
    23.693 4.1781e+11
    23.705 4.1846e+11
    23.718 4.1911e+11
     23.73 4.1976e+11
    23.742 4.2041e+11
    23.755 4.2106e+11
    23.767 4.2171e+11
     23.78 4.2236e+11
    23.792 4.2301e+11
    23.804 4.2367e+11
    23.817 4.2432e+11
    23.829 4.2497e+11
    23.842 4.2563e+11
    23.854 4.2628e+11
    23.866 4.2694e+11
    23.879 4.2759e+11
    23.891 4.2825e+11
    23.904  4.289e+11
    23.916 4.2956e+11
    23.928 4.3022e+11
    23.941 4.3087e+11
    23.953 4.3153e+11
    23.966 4.3219e+11
    23.978 4.3285e+11
     23.99 4.3351e+11
    24.003 4.3417e+11
    24.015 4.3483e+11
    24.028 4.3549e+11
     24.04 4.3615e+11
    24.052 4.3681e+11
    24.065 4.3747e+11
    24.077 4.3813e+11
     24.09 4.3879e+11
    24.102 4.3946e+11
    24.114 4.4012e+11
    24.127 4.4078e+11
    24.139 4.4145e+11
    24.152 4.4211e+11
    24.164 4.4278e+11
    24.176 4.4344e+11
    24.189 4.4411e+11
    24.201 4.4477e+11
    24.214 4.4544e+11
    24.226 4.4611e+11
    24.238 4.4677e+11
    24.251 4.4744e+11
    24.263 4.4811e+11
    24.276 4.4877e+11
    24.288 4.4944e+11
      24.3 4.5011e+11
    24.313 4.5078e+11
    24.325 4.5145e+11
    24.338 4.5212e+11
     24.35 4.5279e+11
    24.362 4.5346e+11
    24.375 4.5413e+11
    24.387 4.5481e+11
      24.4 4.5548e+11
    24.412 4.5615e+11
    24.424 4.5682e+11
    24.437  4.575e+11
    24.449 4.5817e+11
    24.462 4.5884e+11
    24.474 4.5952e+11
    24.486 4.6019e+11
    24.499 4.6087e+11
    24.511 4.6154e+11
    24.524 4.6222e+11
    24.536  4.629e+11
    24.548 4.6357e+11
    24.561 4.6425e+11
    24.573 4.6493e+11
    24.585 4.6561e+11
    24.598 4.6628e+11
     24.61 4.6696e+11
    24.623 4.6764e+11
    24.635 4.6832e+11
    24.647   4.69e+11
     24.66 4.6968e+11
    24.672 4.7036e+11
    24.685 4.7104e+11
    24.697 4.7172e+11
    24.709 4.7241e+11
    24.722 4.7309e+11
    24.734 4.7377e+11
    24.747 4.7445e+11
    24.759 4.7514e+11
    24.771 4.7582e+11
    24.784 4.7651e+11
    24.796 4.7719e+11
    24.809 4.7788e+11
    24.821 4.7856e+11
    24.833 4.7924e+11
    24.846 4.7993e+11
    24.858 4.8062e+11
    24.871  4.813e+11
    24.883 4.8199e+11
    24.895 4.8268e+11
    24.908 4.8337e+11
     24.92 4.8405e+11
    24.933 4.8474e+11
    24.945 4.8543e+11
    24.957 4.8612e+11
     24.97 4.8681e+11
    24.982  4.875e+11
    24.995 4.8819e+11
    25.007 4.8889e+11
    25.019 4.8958e+11
    25.032 4.9027e+11
    25.044 4.9096e+11
    25.057 4.9165e+11
    25.069 4.9234e+11
    25.081 4.9304e+11
    25.094 4.9373e+11
    25.106 4.9443e+11
    25.119 4.9512e+11
    25.131 4.9581e+11
    25.143 4.9651e+11
    25.156 4.9721e+11
    25.168  4.979e+11
    25.181 4.9859e+11
    25.193 4.9929e+11
    25.205 4.9999e+11
    25.218 5.0068e+11
     25.23 5.0138e+11
    25.243 5.0208e+11
    25.255 5.0278e+11
    25.267 5.0348e+11
     25.28 5.0418e+11
    25.292 5.0488e+11
    25.305 5.0558e+11
    25.317 5.0628e+11
    25.329 5.0698e+11
    25.342 5.0768e+11
    25.354 5.0838e+11
    25.367 5.0908e+11
    25.379 5.0978e+11
    25.391 5.1049e+11
    25.404 5.1119e+11
    25.416 5.1189e+11
    25.429  5.126e+11
    25.441  5.133e+11
    25.453   5.14e+11
    25.466 5.1471e+11
    25.478 5.1541e+11
    25.491 5.1612e+11
    25.503 5.1682e+11
    25.515 5.1753e+11
    25.528 5.1824e+11
     25.54 5.1894e+11
    25.553 5.1965e+11
    25.565 5.2036e+11
    25.577 5.2106e+11
     25.59 5.2177e+11
    25.602 5.2248e+11
    25.615 5.2319e+11
    25.627  5.239e+11
    25.639 5.2461e+11
    25.652 5.2532e+11
    25.664 5.2603e+11
    25.677 5.2674e+11
    25.689 5.2745e+11
    25.701 5.2816e+11
    25.714 5.2887e+11
    25.726 5.2958e+11
    25.739  5.303e+11
    25.751 5.3101e+11
    25.763 5.3172e+11
    25.776 5.3244e+11
    25.788 5.3315e+11
    25.801 5.3386e+11
    25.813 5.3458e+11
    25.825 5.3529e+11
    25.838 5.3601e+11
     25.85 5.3673e+11
    25.863 5.3744e+11
    25.875 5.3816e+11
    25.887 5.3887e+11
      25.9 5.3959e+11
    25.912 5.4031e+11
    25.924 5.4102e+11
    25.937 5.4174e+11
    25.949 5.4246e+11
    25.962 5.4318e+11
    25.974  5.439e+11
    25.986 5.4462e+11
    25.999 5.4534e+11
    26.011 5.4606e+11
    26.024 5.4678e+11
    26.036  5.475e+11
    26.048 5.4822e+11
    26.061 5.4894e+11
    26.073 5.4966e+11
    26.086 5.5038e+11
    26.098 5.5111e+11
     26.11 5.5183e+11
    26.123 5.5255e+11
    26.135 5.5328e+11
    26.148   5.54e+11
     26.16 5.5472e+11
    26.172 5.5545e+11
    26.185 5.5617e+11
    26.197  5.569e+11
     26.21 5.5762e+11
    26.222 5.5835e+11
    26.234 5.5907e+11
    26.247  5.598e+11
    26.259 5.6053e+11
    26.272 5.6125e+11
    26.284 5.6198e+11
    26.296 5.6271e+11
    26.309 5.6344e+11
    26.321 5.6417e+11
    26.334  5.649e+11
    26.346 5.6563e+11
    26.358 5.6636e+11
    26.371 5.6708e+11
    26.383 5.6782e+11
    26.396 5.6855e+11
    26.408 5.6928e+11
     26.42 5.7001e+11
    26.433 5.7074e+11
    26.445 5.7147e+11
    26.458  5.722e+11
     26.47 5.7294e+11
    26.482 5.7367e+11
    26.495  5.744e+11
    26.507 5.7514e+11
     26.52 5.7587e+11
    26.532  5.766e+11
    26.544 5.7734e+11
    26.557 5.7807e+11
    26.569 5.7881e+11
    26.582 5.7954e+11
    26.594 5.8028e+11
    26.606 5.8102e+11
    26.619 5.8175e+11
    26.631 5.8249e+11
    26.644 5.8323e+11
    26.656 5.8396e+11
    26.668  5.847e+11
    26.681 5.8544e+11
    26.693 5.8618e+11
    26.706 5.8692e+11
    26.718 5.8766e+11
     26.73 5.8839e+11
    26.743 5.8913e+11
    26.755 5.8987e+11
    26.768 5.9061e+11
     26.78 5.9136e+11
    26.792  5.921e+11
    26.805 5.9284e+11
    26.817 5.9358e+11
     26.83 5.9432e+11
    26.842 5.9506e+11
    26.854  5.958e+11
    26.867 5.9655e+11
    26.879 5.9729e+11
    26.892 5.9804e+11
    26.904 5.9878e+11
    26.916 5.9953e+11
    26.929 6.0027e+11
    26.941 6.0101e+11
    26.954 6.0176e+11
    26.966  6.025e+11
    26.978 6.0325e+11
    26.991   6.04e+11
    27.003 6.0474e+11
    27.016 6.0549e+11
    27.028 6.0624e+11
     27.04 6.0698e+11
    27.053 6.0773e+11
    27.065 6.0848e+11
    27.078 6.0923e+11
     27.09 6.0998e+11
    27.102 6.1072e+11
    27.115 6.1147e+11
    27.127 6.1222e+11
     27.14 6.1297e+11
    27.152 6.1372e+11
    27.164 6.1447e+11
    27.177 6.1522e+11
    27.189 6.1598e+11
    27.202 6.1673e+11
    27.214 6.1748e+11
    27.226 6.1823e+11
    27.239 6.1898e+11
    27.251 6.1974e+11
    27.263 6.2049e+11
    27.276 6.2124e+11
    27.288   6.22e+11
    27.301 6.2275e+11
    27.313  6.235e+11
    27.325 6.2426e+11
    27.338 6.2501e+11
     27.35 6.2577e+11
    27.363 6.2652e+11
    27.375 6.2728e+11
    27.387 6.2803e+11
      27.4 6.2879e+11
    27.412 6.2955e+11
    27.425  6.303e+11
    27.437 6.3106e+11
    27.449 6.3182e+11
    27.462 6.3258e+11
    27.474 6.3333e+11
    27.487 6.3409e+11
    27.499 6.3485e+11
    27.511 6.3561e+11
    27.524 6.3637e+11
    27.536 6.3713e+11
    27.549 6.3789e+11
    27.561 6.3865e+11
    27.573 6.3941e+11
    27.586 6.4017e+11
    27.598 6.4093e+11
    27.611 6.4169e+11
    27.623 6.4246e+11
    27.635 6.4322e+11
    27.648 6.4398e+11
     27.66 6.4474e+11
    27.673  6.455e+11
    27.685 6.4627e+11
    27.697 6.4703e+11
     27.71  6.478e+11
    27.722 6.4856e+11
    27.735 6.4932e+11
    27.747 6.5009e+11
    27.759 6.5085e+11
    27.772 6.5162e+11
    27.784 6.5238e+11
    27.797 6.5315e+11
    27.809 6.5392e+11
    27.821 6.5468e+11
    27.834 6.5545e+11
    27.846 6.5622e+11
    27.859 6.5698e+11
    27.871 6.5775e+11
    27.883 6.5852e+11
    27.896 6.5929e+11
    27.908 6.6006e+11
    27.921 6.6083e+11
    27.933 6.6159e+11
    27.945 6.6236e+11
    27.958 6.6313e+11
     27.97  6.639e+11
    27.983 6.6467e+11
    27.995 6.6544e+11
    28.007 6.6622e+11
     28.02 6.6699e+11
    28.032 6.6775e+11
    28.045 6.6853e+11
    28.057  6.693e+11
    28.069 6.7007e+11
    28.082 6.7084e+11
    28.094 6.7162e+11
    28.107 6.7239e+11
    28.119 6.7316e+11
    28.131 6.7394e+11
    28.144 6.7471e+11
    28.156 6.7548e+11
    28.169 6.7626e+11
    28.181 6.7703e+11
    28.193 6.7781e+11
    28.206 6.7859e+11
    28.218 6.7936e+11
    28.231 6.8014e+11
    28.243 6.8091e+11
    28.255 6.8169e+11
    28.268 6.8247e+11
     28.28 6.8324e+11
    28.293 6.8402e+11
    28.305 6.8479e+11
    28.317 6.8557e+11
     28.33 6.8635e+11
    28.342 6.8713e+11
    28.355 6.8791e+11
    28.367 6.8869e+11
    28.379 6.8947e+11
    28.392 6.9025e+11
    28.404 6.9102e+11
    28.417 6.9181e+11
    28.429 6.9259e+11
    28.441 6.9337e+11
    28.454 6.9415e+11
    28.466 6.9493e+11
    28.479 6.9571e+11
    28.491 6.9649e+11
    28.503 6.9728e+11
    28.516 6.9806e+11
    28.528 6.9884e+11
    28.541 6.9962e+11
    28.553 7.0041e+11
    28.565 7.0119e+11
    28.578 7.0197e+11
     28.59 7.0275e+11
    28.602 7.0354e+11
    28.615 7.0432e+11
    28.627 7.0511e+11
     28.64 7.0589e+11
    28.652 7.0668e+11
    28.664 7.0746e+11
    28.677 7.0825e+11
    28.689 7.0903e+11
    28.702 7.0982e+11
    28.714 7.1061e+11
    28.726  7.114e+11
    28.739 7.1218e+11
    28.751 7.1297e+11
    28.764 7.1376e+11
    28.776 7.1455e+11
    28.788 7.1533e+11
    28.801 7.1612e+11
    28.813 7.1691e+11
    28.826  7.177e+11
    28.838 7.1849e+11
     28.85 7.1928e+11
    28.863 7.2007e+11
    28.875 7.2086e+11
    28.888 7.2165e+11
      28.9 7.2244e+11
    28.912 7.2323e+11
    28.925 7.2402e+11
    28.937 7.2481e+11
     28.95  7.256e+11
    28.962  7.264e+11
    28.974 7.2719e+11
    28.987 7.2798e+11
    28.999 7.2878e+11
    29.012 7.2957e+11
    29.024 7.3036e+11
    29.036 7.3115e+11
    29.049 7.3195e+11
    29.061 7.3274e+11
    29.074 7.3353e+11
    29.086 7.3433e+11
    29.098 7.3512e+11
    29.111 7.3592e+11
    29.123 7.3671e+11
    29.136 7.3751e+11
    29.148  7.383e+11
     29.16  7.391e+11
    29.173 7.3989e+11
    29.185 7.4069e+11
    29.198 7.4149e+11
     29.21 7.4228e+11
    29.222 7.4308e+11
    29.235 7.4388e+11
    29.247 7.4468e+11
     29.26 7.4547e+11
    29.272 7.4627e+11
    29.284 7.4707e+11
    29.297 7.4787e+11
    29.309 7.4867e+11
    29.322 7.4947e+11
    29.334 7.5027e+11
    29.346 7.5107e+11
    29.359 7.5187e+11
    29.371 7.5267e+11
    29.384 7.5347e+11
    29.396 7.5427e+11
    29.408 7.5507e+11
    29.421 7.5588e+11
    29.433 7.5667e+11
    29.446 7.5748e+11
    29.458 7.5828e+11
     29.47 7.5908e+11
    29.483 7.5988e+11
    29.495 7.6069e+11
    29.508 7.6149e+11
     29.52 7.6229e+11
    29.532 7.6309e+11
    29.545  7.639e+11
    29.557  7.647e+11
     29.57 7.6551e+11
    29.582 7.6631e+11
    29.594 7.6711e+11
    29.607 7.6792e+11
    29.619 7.6873e+11
    29.632 7.6953e+11
    29.644 7.7033e+11
    29.656 7.7114e+11
    29.669 7.7195e+11
    29.681 7.7275e+11
    29.694 7.7356e+11
    29.706 7.7437e+11
    29.718 7.7517e+11
    29.731 7.7598e+11
    29.743 7.7679e+11
    29.756  7.776e+11
    29.768  7.784e+11
     29.78 7.7921e+11
    29.793 7.8002e+11
    29.805 7.8083e+11
    29.818 7.8164e+11
     29.83 7.8245e+11
    29.842 7.8326e+11
    29.855 7.8407e+11
    29.867 7.8488e+11
     29.88 7.8569e+11
    29.892  7.865e+11
    29.904 7.8731e+11
    29.917 7.8812e+11
    29.929 7.8893e+11
    29.941 7.8974e+11
    29.954 7.9055e+11
    29.966 7.9137e+11
    29.979 7.9218e+11
    29.991 7.9299e+11
    30.003  7.938e+11
